# Wavelength (nm)	Intensity (a.u.)
197.7802	0.001293
197.9842	0.000387
198.1882	0.001399
198.3922	-0.001427
198.5963	-0.000436
198.8003	-0.000330
199.0044	0.001209
199.2085	0.001378
199.4126	-0.000183
199.6168	-0.000014
199.8209	0.001441
200.0251	0.001293
200.2292	0.001293
200.4334	-0.000604
200.6376	0.001588
200.8418	0.000450
201.0461	0.000513
201.2503	0.000703
201.4546	-0.000541
201.6589	0.000513
201.8631	0.001146
202.0674	-0.000626
202.2718	-0.000900
202.4761	0.000893
202.6805	0.000218
202.8848	0.000640
203.0892	-0.000457
203.2936	0.001293
203.4980	0.000682
203.7024	-0.000984
203.9069	0.000914
204.1113	0.001061
204.3158	-0.000014
204.5203	0.001103
204.7248	0.001631
204.9293	-0.000499
205.1338	0.000260
205.3384	0.000260
205.5430	-0.000478
205.7475	0.001420
205.9521	0.001103
206.1567	0.000766
206.3614	0.001103
206.5660	0.000850
206.7706	0.000597
206.9753	0.000091
207.1800	0.001167
207.3847	-0.000098
207.5894	0.000049
207.7941	0.000091
207.9989	0.002010
208.2036	0.000302
208.4084	0.000218
208.6132	0.000787
208.8180	0.001420
209.0228	0.001082
209.2276	0.000091
209.4325	0.000703
209.6373	0.000640
209.8422	-0.000541
210.0471	0.001272
210.2520	-0.000689
210.4569	0.000787
210.6618	0.000534
210.8668	0.001778
211.0718	-0.000647
211.2767	0.001884
211.4817	0.000977
211.6867	0.000893
211.8918	0.000408
212.0968	0.000850
212.3018	-0.000014
212.5069	0.000640
212.7120	0.000155
212.9171	0.000766
213.1222	0.001040
213.3273	0.001968
213.5325	-0.000288
213.7376	0.000640
213.9428	0.000197
214.1480	0.000787
214.3532	-0.000541
214.5584	0.000408
214.7636	-0.000119
214.9689	0.001968
215.1741	0.000492
215.3794	0.000323
215.5847	0.000492
215.7900	0.001504
215.9953	-0.000246
216.2007	0.001631
216.4060	0.000197
216.6114	0.000914
216.8168	0.000640
217.0222	0.001251
217.2276	0.001546
217.4330	-0.000098
217.6384	0.000618
217.8439	0.001546
218.0494	-0.000330
218.2548	0.001525
218.4603	0.000471
218.6659	0.000555
218.8714	0.000197
219.0769	0.001040
219.2825	0.000956
219.4881	0.001230
219.6936	0.000956
219.8992	0.000450
220.1049	0.000998
220.3105	0.001504
220.5161	0.000260
220.7218	0.000155
220.9275	0.000302
221.1332	0.000471
221.3389	0.000492
221.5446	-0.000056
221.7503	0.002200
221.9561	0.001462
222.1618	0.000640
222.3676	0.000239
222.5734	0.000112
222.7792	0.002263
222.9850	0.001420
223.1909	0.000766
223.3967	0.000724
223.6026	0.001103
223.8085	0.000197
224.0144	-0.000309
224.2203	0.000914
224.4262	0.000640
224.6322	0.000007
224.8381	-0.000183
225.0441	0.000260
225.2501	0.000724
225.4561	0.000914
225.6621	0.001209
225.8681	-0.000394
226.0742	0.001504
226.2802	-0.000141
226.4863	0.000745
226.6924	0.001356
226.8985	0.000576
227.1046	-0.001448
227.3107	0.000344
227.5169	-0.000204
227.7230	0.000871
227.9292	0.000534
228.1354	-0.000246
228.3416	0.000492
228.5478	0.000155
228.7541	0.000682
228.9603	0.001314
229.1666	-0.000309
229.3729	0.001314
229.5791	0.001504
229.7855	0.000787
229.9918	0.000914
230.1981	0.001462
230.4045	0.000260
230.6108	0.000724
230.8172	0.000703
231.0236	0.000534
231.2300	0.000871
231.4364	0.000618
231.6429	-0.000520
231.8493	0.000766
232.0558	0.000724
232.2623	-0.000077
232.4688	0.001061
232.6753	-0.000457
232.8818	0.000197
233.0884	-0.000900
233.2949	-0.000415
233.5015	0.000914
233.7081	-0.000225
233.9147	-0.000351
234.1213	0.000871
234.3279	-0.000162
234.5346	0.001040
234.7413	0.001251
234.9479	0.000492
235.1546	0.001504
235.3613	0.000260
235.5680	-0.000794
235.7748	0.000555
235.9815	0.000218
236.1883	-0.000246
236.3951	0.002073
236.6018	0.000408
236.8087	0.001103
237.0155	0.000091
237.2223	0.001082
237.4292	0.001378
237.6360	0.002031
237.8429	0.001188
238.0498	0.000281
238.2567	0.000471
238.4636	-0.000752
238.6706	0.000049
238.8775	0.000998
239.0845	0.000745
239.2915	0.000387
239.4985	-0.000562
239.7055	0.001715
239.9125	-0.000836
240.1195	0.001335
240.3266	0.002896
240.5337	-0.000731
240.7407	-0.000773
240.9478	0.000998
241.1549	-0.000647
241.3621	0.001293
241.5692	0.001926
241.7764	0.000661
241.9835	-0.000267
242.1907	-0.000246
242.3979	0.001378
242.6051	0.000829
242.8124	0.001483
243.0196	0.000766
243.2269	0.000197
243.4341	0.001125
243.6414	0.001884
243.8487	0.000429
244.0560	0.001378
244.2634	0.000682
244.4707	0.000597
244.6781	0.001378
244.8854	0.000408
245.0928	0.001420
245.3002	0.001841
245.5076	0.000935
245.7151	0.000597
245.9225	0.001209
246.1300	0.000745
246.3375	0.001736
246.5449	0.000597
246.7524	0.000682
246.9600	-0.000098
247.1675	0.000935
247.3750	0.000302
247.5826	0.000091
247.7902	0.001082
247.9978	0.001293
248.2054	-0.000183
248.4130	0.001272
248.6206	0.000281
248.8283	0.001420
249.0359	0.000365
249.2436	0.000429
249.4513	0.000007
249.6590	0.000956
249.8667	0.000429
250.0745	0.000787
250.2822	0.000323
250.4900	-0.001026
250.6978	0.000829
250.9056	-0.000604
251.1134	0.000513
251.3212	0.002073
251.5290	-0.000752
251.7369	0.000977
251.9447	0.000513
252.1526	0.000197
252.3605	-0.000183
252.5684	0.001715
252.7763	0.000597
252.9843	0.001905
253.1922	-0.000351
253.4002	-0.000077
253.6082	0.001441
253.8162	-0.000984
254.0242	-0.000562
254.2322	0.000534
254.4402	0.001314
254.6483	0.001378
254.8564	0.000534
255.0644	0.001609
255.2725	0.000808
255.4806	0.000935
255.6888	0.000850
255.8969	0.000513
256.1051	0.000429
256.3132	0.001841
256.5214	0.000850
256.7296	0.001209
256.9378	0.000218
257.1460	0.001230
257.3543	-0.000014
257.5625	0.000935
257.7708	0.001715
257.9791	0.000597
258.1874	0.000323
258.3957	0.000091
258.6040	0.000703
258.8124	0.000365
259.0207	0.000365
259.2291	0.000914
259.4375	0.001335
259.6459	0.000597
259.8543	0.000344
260.0627	0.001483
260.2711	0.000323
260.4796	-0.000921
260.6881	0.001209
260.8965	0.001061
261.1050	0.000534
261.3135	0.001715
261.5221	-0.000541
261.7306	0.000576
261.9392	0.000260
262.1477	0.001673
262.3563	-0.000056
262.5649	-0.000984
262.7735	0.000429
262.9822	0.001293
263.1908	-0.001153
263.3995	0.002390
263.6081	0.000387
263.8168	0.000682
264.0255	0.000429
264.2342	0.001019
264.4429	0.000028
264.6517	-0.000077
264.8604	0.000323
265.0692	0.000977
265.2780	0.001209
265.4868	0.000471
265.6956	-0.000056
265.9044	0.001251
266.1133	0.001188
266.3221	0.001694
266.5310	-0.000014
266.7399	0.001167
266.9488	0.000344
267.1577	0.000956
267.3666	-0.000647
267.5755	0.000492
267.7845	0.001652
267.9935	0.000492
268.2024	0.000576
268.4114	0.002242
268.6205	0.000239
268.8295	0.000492
269.0385	0.000745
269.2476	-0.000478
269.4566	0.000429
269.6657	0.000977
269.8748	-0.000942
270.0839	0.001335
270.2931	0.000640
270.5022	0.001820
270.7114	0.001525
270.9205	0.001293
271.1297	0.001019
271.3389	-0.000183
271.5481	0.001841
271.7573	0.000492
271.9666	0.001546
272.1758	0.000576
272.3851	0.000176
272.5944	0.001420
272.8037	0.000555
273.0130	0.000618
273.2223	0.000197
273.4316	0.001420
273.6410	-0.000942
273.8504	0.001757
274.0597	0.000429
274.2691	0.000618
274.4785	-0.000162
274.6880	0.000640
274.8974	-0.000119
275.1069	0.001146
275.3163	0.001905
275.5258	-0.000119
275.7353	0.000007
275.9448	0.001019
276.1543	0.000471
276.3639	0.000597
276.5734	0.000534
276.7830	0.000365
276.9926	0.000935
277.2022	0.000871
277.4118	0.000661
277.6214	0.000829
277.8310	0.000112
278.0407	0.001061
278.2503	0.001483
278.4600	0.000745
278.6697	0.000871
278.8794	0.000850
279.0891	0.000091
279.2989	0.001040
279.5086	-0.000520
279.7184	0.001082
279.9281	-0.000520
280.1379	0.000998
280.3477	-0.000879
280.5576	0.000555
280.7674	-0.000119
280.9772	0.001167
281.1871	0.000998
281.3970	0.000302
281.6069	-0.000309
281.8168	0.001588
282.0267	0.001019
282.2366	0.001609
282.4466	-0.000499
282.6565	0.000724
282.8665	0.000260
283.0765	0.000365
283.2865	0.001799
283.4965	0.000829
283.7065	-0.000372
283.9166	0.000977
284.1266	0.000218
284.3367	0.000661
284.5468	0.000935
284.7569	0.000914
284.9670	0.000134
285.1771	0.001799
285.3873	0.000745
285.5974	0.000387
285.8076	0.000218
286.0178	0.001715
286.2280	0.000977
286.4382	-0.000246
286.6484	0.000914
286.8587	0.001209
287.0689	0.001862
287.2792	0.000513
287.4895	0.000070
287.6998	-0.000246
287.9101	0.001209
288.1204	0.000028
288.3308	0.000429
288.5411	0.000829
288.7515	0.000028
288.9619	0.001293
289.1723	0.001188
289.3827	0.001420
289.5931	0.000998
289.8035	0.001715
290.0140	-0.000372
290.2245	0.000597
290.4349	0.001082
290.6454	0.000534
290.8559	-0.000604
291.0665	0.002368
291.2770	-0.000604
291.4875	0.000871
291.6981	-0.000689
291.9087	0.001082
292.1193	-0.000857
292.3299	0.000218
292.5405	0.000576
292.7511	0.001757
292.9618	0.001757
293.1724	-0.000077
293.3831	-0.000478
293.5938	0.000197
293.8045	0.000365
294.0152	0.001694
294.2260	0.000724
294.4367	0.000914
294.6475	0.000850
294.8582	0.000998
295.0690	0.000134
295.2798	0.001715
295.4906	0.000471
295.7015	0.001504
295.9123	0.000239
296.1232	-0.000879
296.3340	-0.001174
296.5449	0.000829
296.7558	0.001420
296.9667	0.001314
297.1777	0.000492
297.3886	-0.000077
297.5995	0.000829
297.8105	0.000450
298.0215	-0.000499
298.2325	0.000998
298.4435	0.001525
298.6545	-0.000014
298.8656	0.000703
299.0766	0.001588
299.2877	0.000450
299.4988	-0.000647
299.7099	-0.000119
299.9210	0.001040
300.1321	0.000344
300.3432	-0.000415
300.5544	0.001736
300.7655	0.000281
300.9767	-0.000309
301.1879	0.000408
301.3991	0.001188
301.6103	0.000998
301.8215	-0.000014
302.0328	-0.000541
302.2441	0.001631
302.4553	0.000450
302.6666	-0.000436
302.8779	0.000935
303.0892	0.000408
303.3006	0.001040
303.5119	0.000260
303.7233	-0.000014
303.9346	0.000914
304.1460	0.001335
304.3574	0.001103
304.5688	0.001378
304.7803	-0.000056
304.9917	0.001188
305.2031	0.000218
305.4146	0.000492
305.6261	0.000281
305.8376	0.000977
306.0491	0.000112
306.2606	0.000112
306.4722	0.000323
306.6837	0.001441
306.8953	0.000471
307.1069	0.000112
307.3184	0.000134
307.5301	0.000829
307.7417	0.000450
307.9533	0.001040
308.1650	0.000155
308.3766	0.001188
308.5883	-0.001005
308.8000	0.000134
309.0117	0.001335
309.2234	0.000070
309.4351	0.001420
309.6469	0.000850
309.8586	0.001293
310.0704	0.000829
310.2822	-0.000056
310.4940	-0.000098
310.7058	-0.000520
310.9176	0.001019
311.1295	0.000218
311.3413	0.002137
311.5532	0.000935
311.7651	0.001251
311.9770	0.000365
312.1889	0.000555
312.4008	-0.000963
312.6127	-0.000372
312.8247	0.000787
313.0366	0.000302
313.2486	0.000049
313.4606	0.001167
313.6726	0.000197
313.8846	0.001588
314.0967	0.000513
314.3087	0.000260
314.5208	0.000408
314.7328	0.001293
314.9449	0.000450
315.1570	-0.000077
315.3692	0.000387
315.5813	0.001546
315.7934	0.000914
316.0056	0.000197
316.2177	0.000112
316.4299	0.000365
316.6421	0.000260
316.8543	0.001947
317.0666	0.000239
317.2788	0.000787
317.4911	-0.000394
317.7033	-0.000098
317.9156	0.000049
318.1279	0.000091
318.3402	0.000239
318.5525	-0.000752
318.7649	-0.000035
318.9772	0.001103
319.1896	-0.001216
319.4019	0.000914
319.6143	0.000176
319.8267	-0.000141
320.0392	0.001588
320.2516	0.001652
320.4640	-0.000098
320.6765	0.000534
320.8890	-0.000056
321.1014	0.000471
321.3139	0.000281
321.5265	0.000787
321.7390	0.000724
321.9515	0.002094
322.1641	0.001082
322.3766	0.001968
322.5892	0.000260
322.8018	0.001082
323.0144	0.000091
323.2270	0.000682
323.4397	0.001293
323.6523	-0.000330
323.8650	-0.000141
324.0777	0.000829
324.2904	0.000998
324.5031	0.000682
324.7158	0.001040
324.9285	0.000682
325.1412	0.001103
325.3540	0.001673
325.5668	0.000450
325.7796	0.000724
325.9924	0.000597
326.2052	-0.000225
326.4180	0.002115
326.6308	0.000408
326.8437	-0.000141
327.0566	0.002031
327.2694	0.000155
327.4823	-0.000984
327.6952	-0.000098
327.9082	-0.000162
328.1211	-0.000183
328.3340	0.001862
328.5470	0.002453
328.7600	0.000112
328.9730	0.001146
329.1860	0.001694
329.3990	-0.000351
329.6120	-0.000415
329.8251	0.000070
330.0381	-0.000752
330.2512	0.000260
330.4643	0.000049
330.6774	0.000998
330.8905	-0.000162
331.1036	0.000808
331.3167	0.001272
331.5299	0.001356
331.7431	0.000365
331.9562	0.000576
332.1694	0.000977
332.3826	-0.000921
332.5959	0.001293
332.8091	0.001841
333.0223	0.002115
333.2356	0.000429
333.4489	0.001588
333.6622	-0.000035
333.8755	0.000155
334.0888	0.000091
334.3021	0.000387
334.5154	0.000344
334.7288	0.000471
334.9422	0.000850
335.1555	0.001082
335.3689	0.000998
335.5823	-0.000457
335.7958	0.001757
336.0092	0.000808
336.2227	0.000808
336.4361	0.000977
336.6496	0.001146
336.8631	0.000850
337.0766	0.000893
337.2901	0.000935
337.5036	0.000998
337.7172	0.002137
337.9307	0.000197
338.1443	0.000871
338.3579	0.000829
338.5715	0.002158
338.7851	-0.000309
338.9987	0.001378
339.2124	0.001103
339.4260	0.000682
339.6397	-0.000520
339.8533	0.001462
340.0670	0.001103
340.2807	-0.000351
340.4945	0.000534
340.7082	0.001947
340.9219	-0.000204
341.1357	0.000344
341.3495	0.002073
341.5633	0.000070
341.7771	-0.000415
341.9909	0.000914
342.2047	0.000871
342.4185	0.001125
342.6324	0.001525
342.8463	0.000534
343.0601	0.000703
343.2740	0.000007
343.4879	0.000618
343.7019	-0.000246
343.9158	0.000091
344.1297	-0.000183
344.3437	0.000618
344.5577	0.000745
344.7717	0.000302
344.9857	0.001272
345.1997	0.000513
345.4137	0.001736
345.6277	0.000049
345.8418	-0.000900
346.0559	-0.000900
346.2699	0.000534
346.4840	0.001652
346.6981	-0.001532
346.9123	0.000745
347.1264	0.000871
347.3406	0.000935
347.5547	-0.000183
347.7689	-0.000162
347.9831	0.001378
348.1973	0.000197
348.4115	0.001441
348.6257	0.000703
348.8400	0.000914
349.0542	0.000344
349.2685	0.002010
349.4828	0.000956
349.6971	0.000450
349.9114	0.001251
350.1257	0.001694
350.3400	0.001862
350.5544	0.001504
350.7687	0.000808
350.9831	-0.000372
351.1975	-0.000541
351.4119	0.000070
351.6263	0.001082
351.8407	0.001019
352.0552	0.001567
352.2696	-0.000689
352.4841	0.000914
352.6986	0.002368
352.9131	0.000998
353.1276	-0.000098
353.3421	0.000302
353.5566	0.002115
353.7712	0.001230
353.9858	0.000871
354.2003	0.000661
354.4149	0.000408
354.6295	0.001399
354.8441	0.001841
355.0588	-0.000436
355.2734	0.001926
355.4881	0.000597
355.7027	0.000302
355.9174	-0.000541
356.1321	0.001441
356.3468	-0.000478
356.5615	-0.000752
356.7763	0.001567
356.9910	0.001335
357.2058	0.000281
357.4206	-0.000204
357.6353	-0.000921
357.8501	0.001504
358.0650	0.000070
358.2798	-0.000520
358.4946	-0.000162
358.7095	0.000070
358.9243	-0.000942
359.1392	0.001335
359.3541	-0.000288
359.5690	0.000640
359.7839	-0.001406
359.9989	0.000387
360.2138	0.000534
360.4288	0.001125
360.6438	0.001019
360.8587	0.001609
361.0737	0.002200
361.2888	-0.000267
361.5038	0.000914
361.7188	0.000640
361.9339	0.000344
362.1489	0.001230
362.3640	0.000302
362.5791	0.001757
362.7942	0.002179
363.0093	0.001420
363.2245	-0.000351
363.4396	0.000766
363.6548	0.001146
363.8699	0.000787
364.0851	-0.000604
364.3003	0.001926
364.5155	0.000070
364.7308	0.000028
364.9460	0.001441
365.1612	0.002326
365.3765	0.001652
365.5918	0.000766
365.8071	0.002242
366.0224	0.001167
366.2377	0.000724
366.4530	0.000787
366.6684	-0.000119
366.8837	0.000408
367.0991	0.000155
367.3145	0.002137
367.5299	0.000429
367.7453	0.000387
367.9607	-0.000436
368.1761	0.001968
368.3916	0.000787
368.6070	0.000070
368.8225	0.001673
369.0380	0.000429
369.2535	-0.000056
369.4690	0.001082
369.6845	0.000829
369.9001	0.000935
370.1156	0.000070
370.3312	0.001715
370.5468	0.000640
370.7624	0.001103
370.9780	-0.000942
371.1936	0.001230
371.4092	-0.000056
371.6249	0.001441
371.8405	-0.000098
372.0562	0.000281
372.2719	0.000829
372.4876	0.001567
372.7033	0.000323
372.9190	0.000745
373.1348	-0.001026
373.3505	0.000555
373.5663	-0.000077
373.7820	0.000155
373.9978	-0.000351
374.2136	0.000555
374.4294	0.001504
374.6453	0.001820
374.8611	0.000281
375.0770	-0.000604
375.2928	0.000070
375.5087	-0.000794
375.7246	-0.000604
375.9405	0.000007
376.1564	-0.000056
376.3724	-0.000647
376.5883	0.000197
376.8043	0.002432
377.0203	0.000281
377.2362	0.001209
377.4522	0.000260
377.6682	0.000914
377.8843	0.000534
378.1003	0.000640
378.3164	0.000176
378.5324	0.000534
378.7485	0.000597
378.9646	0.001103
379.1807	0.000850
379.3968	0.000239
379.6129	-0.000562
379.8291	0.001841
380.0452	-0.000351
380.2614	0.000618
380.4776	0.001441
380.6938	0.001483
380.9100	0.000745
381.1262	0.000091
381.3424	0.001462
381.5587	-0.000014
381.7749	0.001356
381.9912	0.001905
382.2075	0.001441
382.4238	0.000555
382.6401	0.001989
382.8564	0.000914
383.0728	0.000408
383.2891	-0.000288
383.5055	0.000703
383.7219	-0.000119
383.9382	0.000070
384.1546	0.000555
384.3711	0.000682
384.5875	0.000787
384.8039	-0.000942
385.0204	0.000745
385.2368	-0.000836
385.4533	0.000766
385.6698	-0.000752
385.8863	0.000450
386.1028	0.000429
386.3194	0.001040
386.5359	0.000281
386.7525	0.000239
386.9690	0.000935
387.1856	0.001884
387.4022	-0.000246
387.6188	0.000028
387.8355	0.000365
388.0521	0.000893
388.2687	0.000387
388.4854	0.000766
388.7021	0.000387
388.9188	-0.000541
389.1355	0.000408
389.3522	0.000302
389.5689	0.000028
389.7856	0.001841
390.0024	0.000450
390.2192	0.000724
390.4359	0.000218
390.6527	-0.000056
390.8695	0.001757
391.0863	0.001061
391.3032	0.001588
391.5200	0.000935
391.7369	0.000176
391.9537	0.002158
392.1706	0.002094
392.3875	0.001167
392.6044	0.000576
392.8213	0.000787
393.0383	0.001631
393.2552	0.001757
393.4722	-0.000647
393.6891	0.000829
393.9061	0.000492
394.1231	0.002094
394.3401	-0.000351
394.5572	0.001609
394.7742	0.000576
394.9912	0.000302
395.2083	0.000492
395.4254	0.000492
395.6425	0.000365
395.8596	0.001167
396.0767	-0.000077
396.2938	0.000618
396.5109	0.000197
396.7281	0.002010
396.9453	0.000492
397.1624	0.001103
397.3796	0.001631
397.5968	-0.000520
397.8140	0.001251
398.0313	0.000808
398.2485	0.001188
398.4658	0.000850
398.6830	-0.000077
398.9003	0.001631
399.1176	-0.000499
399.3349	-0.000119
399.5522	0.001125
399.7696	0.001314
399.9869	0.000408
400.2043	-0.000604
400.4216	0.000218
400.6390	0.000513
400.8564	0.001420
401.0738	0.001082
401.2912	0.001715
401.5087	0.000408
401.7261	-0.000267
401.9436	0.001588
402.1610	-0.000626
402.3785	0.000850
402.5960	-0.000900
402.8135	0.001694
403.0310	-0.000183
403.2486	0.002558
403.4661	0.001167
403.6837	0.001483
403.9013	0.001167
404.1189	0.001799
404.3365	0.000956
404.5541	0.001335
404.7717	0.000640
404.9893	0.000850
405.2070	0.001841
405.4246	0.001483
405.6423	0.001040
405.8600	0.002242
406.0777	0.001588
406.2954	0.000661
406.5131	0.000956
406.7309	0.000344
406.9486	0.000450
407.1664	0.000365
407.3842	0.001504
407.6020	-0.000499
407.8198	0.002685
408.0376	0.002137
408.2554	0.001399
408.4733	0.001272
408.6911	0.001082
408.9090	0.002052
409.1269	0.000555
409.3448	0.001272
409.5627	0.002052
409.7806	0.000049
409.9985	0.001314
410.2165	0.000618
410.4344	0.002390
410.6524	0.002200
410.8704	0.000703
411.0884	0.002347
411.3064	0.002664
411.5244	0.000513
411.7424	0.000492
411.9605	0.001462
412.1785	0.002790
412.3966	0.001926
412.6147	0.003338
412.8328	0.001862
413.0509	0.003191
413.2690	0.002516
413.4871	0.002368
413.7053	0.001567
413.9234	0.002137
414.1416	0.002432
414.3598	0.001356
414.5780	0.002347
414.7962	0.002411
415.0144	0.003402
415.2326	0.001926
415.4509	0.003212
415.6692	0.002158
415.8874	0.002600
416.1057	0.002664
416.3240	0.001862
416.5423	0.002769
416.7606	0.002748
416.9790	0.003908
417.1973	0.002748
417.4157	0.002938
417.6341	0.003254
417.8524	0.001799
418.0708	0.003887
418.2893	0.004435
418.5077	0.001862
418.7261	0.002537
418.9446	0.003929
419.1630	0.004076
419.3815	0.003191
419.6000	0.002853
419.8185	0.003275
420.0370	0.004224
420.2555	0.003423
420.4741	0.004287
420.6926	0.003908
420.9112	0.003802
421.1298	0.003507
421.3483	0.003992
421.5669	0.004751
421.7856	0.004393
422.0042	0.004498
422.2228	0.005911
422.4415	0.004646
422.6601	0.003697
422.8788	0.005805
423.0975	0.004540
423.3162	0.005594
423.5349	0.003887
423.7536	0.004203
423.9724	0.006122
424.1911	0.004878
424.4099	0.005615
424.6287	0.005637
424.8475	0.005489
425.0663	0.007323
425.2851	0.005004
425.5039	0.004076
425.7228	0.005489
425.9416	0.005468
426.1605	0.004856
426.3793	0.005173
426.5982	0.006143
426.8171	0.004835
427.0361	0.005236
427.2550	0.004878
427.4739	0.006986
427.6929	0.005700
427.9118	0.007682
428.1308	0.005194
428.3498	0.006185
428.5688	0.006712
428.7878	0.008862
429.0068	0.007176
429.2259	0.007450
429.4449	0.008420
429.6640	0.008378
429.8831	0.007112
