# Wavelength (nm)	Intensity (a.u.)
197.7802	0.000315
197.9842	-0.000234
198.1882	-0.002174
198.3922	0.000272
198.5963	0.001116
198.8003	-0.000234
199.0044	0.000420
199.2085	0.000357
199.4126	0.002318
199.6168	-0.000044
199.8209	0.000947
200.0251	0.000483
200.2292	0.001221
200.4334	-0.000149
200.6376	0.002128
200.8418	0.000779
201.0461	0.000188
201.2503	-0.000613
201.4546	0.000336
201.6589	-0.000044
201.8631	0.000315
202.0674	-0.000866
202.2718	0.000736
202.4761	-0.000149
202.6805	0.000019
202.8848	0.000399
203.0892	0.000884
203.2936	-0.001204
203.4980	0.000884
203.7024	-0.000276
203.9069	-0.000044
204.1113	0.001221
204.3158	0.000652
204.5203	-0.000234
204.7248	0.000272
204.9293	-0.000297
205.1338	0.000272
205.3384	0.001116
205.5430	0.001264
205.7475	-0.000128
205.9521	-0.001162
206.1567	0.000547
206.3614	0.000357
206.5660	0.000209
206.7706	0.000947
206.9753	0.000167
207.1800	0.000251
207.3847	0.000547
207.5894	-0.000656
207.7941	-0.000402
207.9989	0.000989
208.2036	0.000146
208.4084	-0.000571
208.6132	-0.001141
208.8180	-0.000023
209.0228	-0.000213
209.2276	0.000399
209.4325	0.002170
209.6373	0.000610
209.8422	-0.000930
210.0471	0.000631
210.2520	0.000968
210.4569	0.000462
210.6618	0.000842
210.8668	0.000863
211.0718	0.000757
211.2767	0.001369
211.4817	0.001643
211.6867	0.001728
211.8918	-0.000318
212.0968	0.001179
212.3018	0.000525
212.5069	-0.000424
212.7120	0.000146
212.9171	0.000568
213.1222	-0.000550
213.3273	0.001517
213.5325	0.000736
213.7376	0.000863
213.9428	-0.001056
214.1480	0.000989
214.3532	-0.000297
214.5584	0.000631
214.7636	-0.000887
214.9689	0.000800
215.1741	0.000462
215.3794	0.000441
215.5847	0.000736
215.7900	0.000167
215.9953	0.000884
216.2007	-0.000002
216.4060	0.000989
216.6114	0.000083
216.8168	0.000062
217.0222	0.000420
217.2276	0.000209
217.4330	0.001664
217.6384	-0.001141
217.8439	-0.000402
218.0494	-0.000149
218.2548	0.000652
218.4603	-0.000972
218.6659	0.001517
218.8714	0.000083
219.0769	0.001791
219.2825	-0.000972
219.4881	0.000146
219.6936	-0.000234
219.8992	0.000694
220.1049	-0.000508
220.3105	0.000083
220.5161	-0.000402
220.7218	0.000610
220.9275	0.000188
221.1332	0.000610
221.3389	-0.000255
221.5446	0.001854
221.7503	0.000462
221.9561	0.001264
222.1618	-0.000002
222.3676	0.001728
222.5734	0.000631
222.7792	0.000842
222.9850	0.001074
223.1909	0.000631
223.3967	-0.000887
223.6026	0.000357
223.8085	0.000040
224.0144	0.000420
224.2203	0.000631
224.4262	0.000989
224.6322	0.000188
224.8381	0.000209
225.0441	0.000272
225.2501	0.001496
225.4561	0.000884
225.6621	0.001179
225.8681	0.000146
226.0742	0.001643
226.2802	0.001622
226.4863	0.000736
226.6924	-0.000128
226.8985	-0.000149
227.1046	-0.000719
227.3107	0.000694
227.5169	-0.000719
227.7230	0.002128
227.9292	-0.000972
228.1354	0.001875
228.3416	-0.001246
228.5478	0.000631
228.7541	0.000483
228.9603	-0.000297
229.1666	0.000821
229.3729	0.000399
229.5791	-0.000044
229.7855	-0.000951
229.9918	0.000736
230.1981	0.000905
230.4045	-0.000023
230.6108	0.000293
230.8172	-0.000044
231.0236	0.000315
231.2300	0.000188
231.4364	0.000610
231.6429	0.000040
231.8493	0.000483
232.0558	-0.000044
232.2623	-0.000424
232.4688	0.000610
232.6753	0.001390
232.8818	0.000441
233.0884	0.001854
233.2949	-0.000508
233.5015	-0.000339
233.7081	-0.000297
233.9147	-0.000402
234.1213	0.000040
234.3279	0.001221
234.5346	-0.000634
234.7413	-0.000508
234.9479	0.001032
235.1546	-0.000192
235.3613	0.000462
235.5680	-0.000381
235.7748	0.000525
235.9815	0.000357
236.1883	0.000019
236.3951	0.000104
236.6018	-0.000466
236.8087	0.000547
237.0155	0.000019
237.2223	0.001390
237.4292	-0.000402
237.6360	0.000483
237.8429	-0.000065
238.0498	-0.000255
238.2567	0.000842
238.4636	-0.000402
238.6706	0.000357
238.8775	0.002107
239.0845	0.000483
239.2915	0.000694
239.4985	-0.000297
239.7055	0.000694
239.9125	0.001221
240.1195	0.001011
240.3266	0.001432
240.5337	0.000547
240.7407	0.000884
240.9478	-0.000466
241.1549	-0.000360
241.3621	0.001074
241.5692	0.000272
241.7764	0.000736
241.9835	0.000884
242.1907	0.001074
242.3979	-0.000930
242.6051	0.000715
242.8124	0.000652
243.0196	0.000188
243.2269	0.000652
243.4341	0.000968
243.6414	-0.000276
243.8487	0.001221
244.0560	0.000315
244.2634	0.000779
244.4707	-0.000002
244.6781	0.000926
244.8854	0.000525
245.0928	0.000357
245.3002	-0.000318
245.5076	0.001390
245.7151	0.001158
245.9225	-0.001056
246.1300	0.000083
246.3375	0.000125
246.5449	0.001285
246.7524	0.000926
246.9600	0.000947
247.1675	0.000652
247.3750	-0.001457
247.5826	0.000673
247.7902	0.000757
247.9978	0.000547
248.2054	0.000019
248.4130	0.000336
248.6206	0.000736
248.8283	0.000673
249.0359	0.000610
249.2436	0.000336
249.4513	-0.000255
249.6590	0.001453
249.8667	-0.000002
250.0745	0.000821
250.2822	0.000272
250.4900	-0.000550
250.6978	-0.000149
250.9056	0.000272
251.1134	-0.000318
251.3212	0.000083
251.5290	-0.000002
251.7369	0.003077
251.9447	-0.001225
252.1526	0.000821
252.3605	0.001453
252.5684	0.000315
252.7763	0.001116
252.9843	0.000420
253.1922	0.000631
253.4002	-0.000698
253.6082	0.001875
253.8162	0.000209
254.0242	0.000399
254.2322	0.000926
254.4402	-0.000445
254.6483	-0.000086
254.8564	-0.000887
255.0644	-0.000044
255.2725	0.000062
255.4806	0.000547
255.6888	-0.000634
255.8969	0.000547
256.1051	0.000863
256.3132	0.000062
256.5214	0.000842
256.7296	0.000968
256.9378	-0.000550
257.1460	0.000420
257.3543	0.001327
257.5625	0.001116
257.7708	0.000905
257.9791	0.000568
258.1874	0.000378
258.3957	0.000420
258.6040	-0.000192
258.8124	0.000272
259.0207	0.001032
259.2291	0.000800
259.4375	-0.000318
259.6459	0.001264
259.8543	-0.000255
260.0627	0.001411
260.2711	0.001285
260.4796	0.001917
260.6881	0.001306
260.8965	0.000504
261.1050	0.001306
261.3135	0.000779
261.5221	0.000694
261.7306	0.000251
261.9392	0.000251
262.1477	0.000083
262.3563	0.000547
262.5649	0.000104
262.7735	0.001538
262.9822	0.000652
263.1908	0.001517
263.3995	0.000104
263.6081	0.000209
263.8168	0.001032
264.0255	0.000842
264.2342	0.001833
264.4429	-0.000234
264.6517	0.001812
264.8604	-0.000424
265.0692	0.000146
265.2780	0.000188
265.4868	0.001179
265.6956	-0.000234
265.9044	-0.000276
266.1133	0.000926
266.3221	0.001432
266.5310	-0.000402
266.7399	0.000483
266.9488	0.001158
267.1577	0.001348
267.3666	0.000884
267.5755	0.000736
267.7845	0.000694
267.9935	-0.000466
268.2024	-0.000255
268.4114	0.000483
268.6205	-0.000592
268.8295	0.001221
269.0385	0.000694
269.2476	0.001095
269.4566	0.000230
269.6657	0.000968
269.8748	-0.000529
270.0839	0.000462
270.2931	-0.001162
270.5022	0.001011
270.7114	-0.000592
270.9205	0.000547
271.1297	0.001306
271.3389	0.000483
271.5481	0.001242
271.7573	0.000694
271.9666	-0.000297
272.1758	0.000905
272.3851	-0.000086
272.5944	-0.000023
272.8037	0.001032
273.0130	0.000188
273.2223	-0.000613
273.4316	0.000251
273.6410	-0.000234
273.8504	0.001622
274.0597	0.000272
274.2691	0.000420
274.4785	-0.000909
274.6880	-0.000634
274.8974	0.000884
275.1069	0.000863
275.3163	-0.001499
275.5258	0.000926
275.7353	-0.000255
275.9448	-0.000824
276.1543	-0.000592
276.3639	0.001728
276.5734	0.001137
276.7830	0.001053
276.9926	-0.000192
277.2022	0.000146
277.4118	0.000610
277.6214	0.000209
277.8310	0.000336
278.0407	-0.000107
278.2503	0.000736
278.4600	0.000842
278.6697	-0.000107
278.8794	0.000926
279.0891	0.000673
279.2989	-0.000339
279.5086	-0.000170
279.7184	0.000779
279.9281	-0.000887
280.1379	0.000230
280.3477	-0.001246
280.5576	0.000483
280.7674	0.000315
280.9772	0.001664
281.1871	0.001242
281.3970	0.000272
281.6069	0.000315
281.8168	0.000378
282.0267	0.000547
282.2366	0.000673
282.4466	-0.000023
282.6565	-0.000213
282.8665	0.001074
283.0765	-0.000909
283.2865	-0.000086
283.4965	-0.000065
283.7065	0.000694
283.9166	0.000652
284.1266	0.000800
284.3367	0.000947
284.5468	-0.000149
284.7569	0.000715
284.9670	-0.000845
285.1771	0.000441
285.3873	0.000251
285.5974	0.000547
285.8076	0.000652
286.0178	0.000694
286.2280	0.001242
286.4382	-0.000297
286.6484	0.000842
286.8587	0.000272
287.0689	0.000040
287.2792	0.000736
287.4895	-0.000023
287.6998	-0.000297
287.9101	0.000125
288.1204	-0.000086
288.3308	-0.000508
288.5411	0.000779
288.7515	-0.000634
288.9619	0.001242
289.1723	0.001791
289.3827	0.000652
289.5931	0.000188
289.8035	-0.001394
290.0140	0.000947
290.2245	0.001517
290.4349	0.000209
290.6454	0.001095
290.8559	-0.000234
291.0665	0.000631
291.2770	-0.000276
291.4875	0.001200
291.6981	0.000167
291.9087	-0.000445
292.1193	-0.000023
292.3299	0.001095
292.5405	0.000251
292.7511	0.002086
292.9618	-0.000487
293.1724	0.000125
293.3831	-0.000234
293.5938	-0.000128
293.8045	0.000104
294.0152	0.000863
294.2260	0.000884
294.4367	0.001812
294.6475	-0.000445
294.8582	0.001242
295.0690	0.000251
295.2798	-0.000487
295.4906	-0.000487
295.7015	0.001706
295.9123	-0.000318
296.1232	0.000062
296.3340	-0.000824
296.5449	-0.000719
296.7558	0.001285
296.9667	0.000694
297.1777	0.000315
297.3886	0.000779
297.5995	0.000315
297.8105	0.000040
298.0215	0.000673
298.2325	0.001200
298.4435	-0.000466
298.6545	0.001053
298.8656	-0.000381
299.0766	0.000905
299.2877	0.000188
299.4988	0.001221
299.7099	-0.000845
299.9210	0.000504
300.1321	0.000631
300.3432	0.001706
300.5544	0.000736
300.7655	0.000757
300.9767	0.000483
301.1879	-0.001014
301.3991	0.000315
301.6103	0.002023
301.8215	0.000083
302.0328	0.000757
302.2441	0.000525
302.4553	0.001327
302.6666	0.001053
302.8779	-0.000466
303.0892	0.001158
303.3006	-0.000170
303.5119	-0.000550
303.7233	0.000821
303.9346	-0.000761
304.1460	0.000293
304.3574	-0.000824
304.5688	0.001791
304.7803	0.001285
304.9917	0.000821
305.2031	0.000504
305.4146	0.000019
305.6261	-0.000297
305.8376	-0.000255
306.0491	-0.000592
306.2606	-0.001373
306.4722	0.000188
306.6837	0.001559
306.8953	0.000420
307.1069	0.000062
307.3184	0.000019
307.5301	0.001559
307.7417	-0.000529
307.9533	0.000357
308.1650	0.000104
308.3766	0.001622
308.5883	0.000146
308.8000	0.000547
309.0117	0.000525
309.2234	0.001728
309.4351	0.000293
309.6469	0.001264
309.8586	-0.000360
310.0704	0.000209
310.2822	-0.000951
310.4940	0.000715
310.7058	-0.000445
310.9176	-0.000571
311.1295	-0.000381
311.3413	0.000378
311.5532	-0.000339
311.7651	0.001474
311.9770	0.000483
312.1889	0.000378
312.4008	0.001242
312.6127	-0.000381
312.8247	0.001285
313.0366	0.001960
313.2486	0.000652
313.4606	0.001559
313.6726	-0.000972
313.8846	0.000842
314.0967	0.000673
314.3087	0.000715
314.5208	-0.000508
314.7328	-0.000065
314.9449	0.000441
315.1570	0.000315
315.3692	0.000146
315.5813	0.000188
315.7934	0.002381
316.0056	0.001643
316.2177	0.002402
316.4299	0.000146
316.6421	0.000272
316.8543	0.000167
317.0666	-0.000023
317.2788	-0.000234
317.4911	0.000483
317.7033	0.001200
317.9156	-0.000276
318.1279	0.002044
318.3402	0.000568
318.5525	-0.000297
318.7649	0.000483
318.9772	0.001221
319.1896	-0.000402
319.4019	0.001200
319.6143	0.000104
319.8267	0.000842
320.0392	0.001074
320.2516	0.001390
320.4640	-0.000613
320.6765	0.002044
320.8890	0.001158
321.1014	0.000589
321.3139	-0.000634
321.5265	-0.000192
321.7390	-0.000402
321.9515	0.001116
322.1641	-0.000677
322.3766	0.000315
322.5892	0.001728
322.8018	-0.000803
323.0144	-0.000951
323.2270	0.001749
323.4397	0.000736
323.6523	0.002086
323.8650	-0.000529
324.0777	0.000968
324.2904	0.000779
324.5031	0.000441
324.7158	-0.000318
324.9285	0.000040
325.1412	-0.000402
325.3540	0.000842
325.5668	0.000968
325.7796	0.001053
325.9924	0.000040
326.2052	-0.000149
326.4180	0.000251
326.6308	0.001179
326.8437	0.000905
327.0566	0.001369
327.2694	0.000483
327.4823	0.000926
327.6952	0.002634
327.9082	-0.000213
328.1211	0.000104
328.3340	0.002297
328.5470	0.000062
328.7600	0.001200
328.9730	-0.000318
329.1860	0.000188
329.3990	0.000652
329.6120	0.000589
329.8251	0.000104
330.0381	0.001095
330.2512	0.000188
330.4643	0.001011
330.6774	0.000547
330.8905	0.000062
331.1036	-0.000698
331.3167	0.000821
331.5299	-0.001246
331.7431	0.000989
331.9562	0.000989
332.1694	0.001517
332.3826	0.000547
332.5959	0.001095
332.8091	-0.000677
333.0223	0.000631
333.2356	-0.001077
333.4489	0.001348
333.6622	0.000968
333.8755	0.002234
334.0888	-0.000951
334.3021	0.000589
334.5154	-0.000213
334.7288	0.000146
334.9422	-0.000086
335.1555	-0.000381
335.3689	-0.001752
335.5823	0.002993
335.7958	0.000336
336.0092	0.000589
336.2227	0.000146
336.4361	0.002445
336.6496	0.000715
336.8631	0.000779
337.0766	0.000420
337.2901	0.000525
337.5036	0.000146
337.7172	0.000779
337.9307	0.000315
338.1443	0.000504
338.3579	0.000547
338.5715	-0.000002
338.7851	0.000188
338.9987	0.000757
339.2124	0.000209
339.4260	0.000062
339.6397	0.000040
339.8533	-0.000002
340.0670	0.000357
340.2807	0.000652
340.4945	-0.000297
340.7082	0.001770
340.9219	0.001706
341.1357	0.000420
341.3495	-0.000213
341.5633	0.001432
341.7771	0.000736
341.9909	0.002044
342.2047	0.000188
342.4185	0.000293
342.6324	-0.000297
342.8463	-0.000213
343.0601	0.002213
343.2740	0.001032
343.4879	-0.000044
343.7019	0.000779
343.9158	-0.000107
344.1297	0.001264
344.3437	-0.001077
344.5577	0.002170
344.7717	-0.000845
344.9857	0.000062
345.1997	-0.000402
345.4137	0.000715
345.6277	0.001158
345.8418	0.001053
346.0559	-0.000213
346.2699	0.000040
346.4840	0.000441
346.6981	-0.001373
346.9123	-0.000065
347.1264	0.001074
347.3406	0.001285
347.5547	0.000230
347.7689	-0.000466
347.9831	0.000884
348.1973	-0.000740
348.4115	0.000483
348.6257	0.000673
348.8400	0.000821
349.0542	-0.000613
349.2685	-0.000656
349.4828	-0.000234
349.6971	-0.000445
349.9114	0.000146
350.1257	-0.000149
350.3400	-0.001499
350.5544	-0.000866
350.7687	0.000272
350.9831	0.001770
351.1975	0.000083
351.4119	0.000125
351.6263	-0.000487
351.8407	0.000378
352.0552	-0.000086
352.2696	0.000926
352.4841	0.000420
352.6986	0.000589
352.9131	0.001011
353.1276	0.000062
353.3421	0.000040
353.5566	0.001896
353.7712	0.001137
353.9858	0.000483
354.2003	-0.000445
354.4149	0.000125
354.6295	-0.001373
354.8441	0.001116
355.0588	0.001200
355.2734	0.000989
355.4881	0.000462
355.7027	0.001095
355.9174	-0.001014
356.1321	-0.000128
356.3468	0.000420
356.5615	-0.000360
356.7763	-0.001394
356.9910	0.001474
357.2058	-0.000297
357.4206	-0.000297
357.6353	0.000483
357.8501	0.002613
358.0650	-0.000445
358.2798	-0.000466
358.4946	-0.000550
358.7095	0.001137
358.9243	-0.000192
359.1392	0.000821
359.3541	-0.000192
359.5690	0.000926
359.7839	0.000040
359.9989	0.000736
360.2138	-0.000656
360.4288	0.001369
360.6438	0.000926
360.8587	0.001327
361.0737	0.001137
361.2888	0.000968
361.5038	0.000251
361.7188	0.000146
361.9339	0.000146
362.1489	-0.000128
362.3640	-0.000234
362.5791	0.001411
362.7942	0.000083
363.0093	0.001875
363.2245	0.000547
363.4396	-0.000234
363.6548	0.001411
363.8699	0.001791
364.0851	-0.000297
364.3003	0.001580
364.5155	0.000863
364.7308	0.000715
364.9460	-0.000065
365.1612	-0.001267
365.3765	-0.000149
365.5918	-0.000402
365.8071	-0.000107
366.0224	0.000462
366.2377	0.000040
366.4530	-0.000381
366.6684	-0.000002
366.8837	0.000863
367.0991	-0.000192
367.3145	0.001137
367.5299	0.000673
367.7453	0.000547
367.9607	0.000589
368.1761	-0.000128
368.3916	0.001411
368.6070	0.000188
368.8225	-0.000002
369.0380	-0.000192
369.2535	-0.000824
369.4690	0.000884
369.6845	0.001580
369.9001	0.000399
370.1156	-0.000613
370.3312	0.002128
370.5468	0.000694
370.7624	0.000315
370.9780	-0.000107
371.1936	0.000167
371.4092	0.000504
371.6249	0.001643
371.8405	-0.000213
372.0562	0.000378
372.2719	0.000146
372.4876	0.001032
372.7033	0.000420
372.9190	0.000504
373.1348	-0.000297
373.3505	0.001306
373.5663	0.000968
373.7820	0.000589
373.9978	0.000736
374.2136	0.001538
374.4294	0.000589
374.6453	0.001981
374.8611	-0.000550
375.0770	-0.000318
375.2928	-0.000424
375.5087	0.000926
375.7246	-0.001014
375.9405	0.001390
376.1564	0.000631
376.3724	0.000779
376.5883	0.001559
376.8043	0.001032
377.0203	-0.000613
377.2362	0.001369
377.4522	0.001200
377.6682	0.000821
377.8843	-0.000149
378.1003	0.000757
378.3164	-0.000107
378.5324	0.000547
378.7485	0.000125
378.9646	0.000188
379.1807	-0.000930
379.3968	0.000188
379.6129	-0.000993
379.8291	0.000357
380.0452	0.000652
380.2614	-0.000086
380.4776	-0.000128
380.6938	0.000779
380.9100	-0.000529
381.1262	-0.001330
381.3424	0.001095
381.5587	-0.000508
381.7749	0.002023
381.9912	0.000230
382.2075	0.000315
382.4238	0.000146
382.6401	0.000083
382.8564	0.000589
383.0728	0.000968
383.2891	0.000926
383.5055	0.001833
383.7219	0.001179
383.9382	-0.000234
384.1546	-0.000466
384.3711	-0.000424
384.5875	0.000230
384.8039	0.000525
385.0204	0.000631
385.2368	-0.000550
385.4533	0.001074
385.6698	-0.001162
385.8863	0.001264
386.1028	-0.000993
386.3194	0.000230
386.5359	-0.000824
386.7525	0.000125
386.9690	-0.000149
387.1856	-0.001183
387.4022	0.000040
387.6188	-0.000698
387.8355	-0.000128
388.0521	0.000968
388.2687	0.000019
388.4854	0.001348
388.7021	0.000821
388.9188	0.001053
389.1355	-0.000192
389.3522	0.000504
389.5689	0.000884
389.7856	0.000968
390.0024	-0.000149
390.2192	-0.000487
390.4359	0.001474
390.6527	0.001854
390.8695	0.000188
391.0863	0.000483
391.3032	-0.000297
391.5200	0.001896
391.7369	0.001053
391.9537	0.000483
392.1706	0.000568
392.3875	0.000610
392.6044	-0.000487
392.8213	-0.000782
393.0383	0.001306
393.2552	-0.000213
393.4722	0.000947
393.6891	0.000504
393.9061	0.001053
394.1231	-0.000445
394.3401	0.000420
394.5572	0.000652
394.7742	0.002297
394.9912	-0.000571
395.2083	0.000989
395.4254	0.000652
395.6425	-0.000128
395.8596	0.001074
396.0767	0.001411
396.2938	0.000863
396.5109	0.000315
396.7281	0.000694
396.9453	0.000188
397.1624	0.001327
397.3796	0.000631
397.5968	-0.000002
397.8140	0.000272
398.0313	0.000441
398.2485	-0.000065
398.4658	0.000230
398.6830	0.000947
398.9003	-0.000550
399.1176	0.000821
399.3349	0.000968
399.5522	0.000230
399.7696	0.000399
399.9869	0.000399
400.2043	0.000863
400.4216	0.000905
400.6390	0.001559
400.8564	-0.000571
401.0738	0.001137
401.2912	0.001390
401.5087	0.000441
401.7261	-0.000002
401.9436	0.000441
402.1610	0.001496
402.3785	0.002128
402.5960	0.000610
402.8135	0.001327
403.0310	0.001706
403.2486	-0.000192
403.4661	0.001517
403.6837	0.001706
403.9013	0.000800
404.1189	0.001664
404.3365	0.001706
404.5541	0.000842
404.7717	0.000863
404.9893	0.001348
405.2070	0.000757
405.4246	-0.000086
405.6423	0.000736
405.8600	0.000926
406.0777	0.000905
406.2954	-0.000065
406.5131	0.000610
406.7309	0.000420
406.9486	0.001264
407.1664	0.001116
407.3842	-0.000677
407.6020	0.000251
407.8198	-0.000339
408.0376	0.001496
408.2554	0.000336
408.4733	0.001854
408.6911	0.000525
408.9090	0.001559
409.1269	0.000863
409.3448	0.000821
409.5627	0.000989
409.7806	0.000420
409.9985	0.000821
410.2165	0.001643
410.4344	0.001875
410.6524	0.000167
410.8704	0.001960
411.0884	0.002044
411.3064	0.000863
411.5244	0.002002
411.7424	0.001875
411.9605	0.001875
412.1785	0.000062
412.3966	0.001706
412.6147	0.002044
412.8328	0.001601
413.0509	0.002339
413.2690	0.001242
413.4871	0.002276
413.7053	0.001242
413.9234	0.002550
414.1416	0.002297
414.3598	0.002634
414.5780	0.001812
414.7962	0.001981
415.0144	0.001643
415.2326	0.002128
415.4509	0.001981
415.6692	0.002360
415.8874	0.002550
416.1057	0.003647
416.3240	0.004005
416.5423	0.002276
416.7606	0.002234
416.9790	0.002487
417.1973	0.002170
417.4157	0.002508
417.6341	0.002318
417.8524	0.002550
418.0708	0.002107
418.2893	0.003288
418.5077	0.002276
418.7261	0.002402
418.9446	0.003963
419.1630	0.001453
419.3815	0.004090
419.6000	0.003056
419.8185	0.004680
420.0370	0.004279
420.2555	0.003457
420.4741	0.004237
420.6926	0.002423
420.9112	0.003056
421.1298	0.004258
421.3483	0.003647
421.5669	0.005334
421.7856	0.003457
422.0042	0.004996
422.2228	0.004807
422.4415	0.004258
422.6601	0.004258
422.8788	0.004216
423.0975	0.005608
423.3162	0.004279
423.5349	0.003183
423.7536	0.005144
423.9724	0.003710
424.1911	0.005882
424.4099	0.003858
424.6287	0.004954
424.8475	0.005524
425.0663	0.005502
425.2851	0.006220
425.5039	0.005186
425.7228	0.007590
425.9416	0.005861
426.1605	0.004870
426.3793	0.005756
426.5982	0.006072
426.8171	0.005945
427.0361	0.005777
427.2550	0.004237
427.4739	0.006072
427.6929	0.006557
427.9118	0.006768
428.1308	0.007801
428.3498	0.007274
428.5688	0.006915
428.7878	0.007232
