# Wavelength (nm)	Intensity (a.u.)
197.7802	-0.000643
197.9842	-0.001489
198.1882	0.000583
198.3922	-0.000453
198.5963	-0.000707
198.8003	0.000562
199.0044	0.000139
199.2085	0.000118
199.4126	0.000943
199.6168	-0.001405
199.8209	0.002233
200.0251	-0.001764
200.2292	-0.000009
200.4334	-0.000241
200.6376	-0.000072
200.8418	0.000901
201.0461	0.001641
201.2503	-0.000538
201.4546	0.000774
201.6589	-0.000664
201.8631	0.001049
202.0674	0.000499
202.2718	0.001133
202.4761	-0.000749
202.6805	0.000118
202.8848	-0.001003
203.0892	-0.000707
203.2936	0.000985
203.4980	0.000055
203.7024	0.000837
203.9069	0.000182
204.1113	0.000414
204.3158	-0.000136
204.5203	0.000943
204.7248	-0.000389
204.9293	-0.001954
205.1338	0.001133
205.3384	-0.002187
205.5430	-0.000601
205.7475	-0.000368
205.9521	0.001831
206.1567	0.001746
206.3614	0.000922
206.5660	0.001916
206.7706	0.002254
206.9753	0.000774
207.1800	-0.000157
207.3847	0.000393
207.5894	0.000012
207.7941	-0.000241
207.9989	0.001810
208.2036	0.000097
208.4084	0.000943
208.6132	-0.000241
208.8180	0.001725
209.0228	-0.001214
209.2276	0.000478
209.4325	0.000372
209.6373	0.000245
209.8422	-0.001637
210.0471	0.001239
210.2520	-0.000241
210.4569	0.000308
210.6618	-0.000072
210.8668	0.000139
211.0718	-0.001066
211.2767	0.001493
211.4817	0.001175
211.6867	-0.000030
211.8918	0.000922
212.0968	0.000668
212.3018	0.000689
212.5069	0.002212
212.7120	0.000795
212.9171	0.000541
213.1222	0.000351
213.3273	0.000203
213.5325	0.000795
213.7376	-0.001257
213.9428	-0.000918
214.1480	-0.000918
214.3532	-0.000580
214.5584	0.000266
214.7636	-0.000263
214.9689	-0.000538
215.1741	-0.001426
215.3794	-0.000030
215.5847	-0.001362
215.7900	-0.000220
215.9953	0.000330
216.2007	0.001408
216.4060	-0.000411
216.6114	0.000139
216.8168	-0.000389
217.0222	-0.000030
217.2276	0.000816
217.4330	-0.000115
217.6384	0.000922
217.8439	0.000731
218.0494	-0.000347
218.2548	0.001070
218.4603	-0.000516
218.6659	0.001641
218.8714	0.000943
219.0769	0.001197
219.2825	0.000033
219.4881	0.000562
219.6936	0.000266
219.8992	0.002000
220.1049	-0.000241
220.3105	-0.000728
220.5161	-0.000707
220.7218	0.000287
220.9275	0.001154
221.1332	-0.000178
221.3389	0.000033
221.5446	0.000604
221.7503	-0.000030
221.9561	0.001472
222.1618	0.000541
222.3676	0.000583
222.5734	-0.001468
222.7792	0.000160
222.9850	0.000203
223.1909	0.000816
223.3967	-0.000516
223.6026	0.000055
223.8085	0.000351
224.0144	-0.000453
224.2203	-0.000368
224.4262	0.000604
224.6322	0.002106
224.8381	-0.001087
225.0441	-0.001362
225.2501	0.000710
225.4561	-0.000178
225.6621	0.000266
225.8681	-0.000474
226.0742	-0.000411
226.2802	-0.000601
226.4863	-0.000136
226.6924	0.001027
226.8985	0.000922
227.1046	-0.000960
227.3107	-0.000982
227.5169	-0.000749
227.7230	-0.001066
227.9292	0.001324
228.1354	0.001450
228.3416	-0.000284
228.5478	0.002021
228.7541	-0.000389
228.9603	0.000330
229.1666	0.001429
229.3729	-0.000030
229.5791	-0.001109
229.7855	-0.001003
229.9918	-0.001257
230.1981	-0.001489
230.4045	0.001006
230.6108	-0.000093
230.8172	0.001175
231.0236	-0.001299
231.2300	-0.001806
231.4364	-0.001193
231.6429	-0.000284
231.8493	0.001958
232.0558	-0.002356
232.2623	-0.000347
232.4688	0.000795
232.6753	0.000456
232.8818	0.000287
233.0884	-0.000220
233.2949	0.000203
233.5015	0.001070
233.7081	0.000012
233.9147	-0.000516
234.1213	-0.000115
234.3279	0.000731
234.5346	0.000203
234.7413	0.000985
234.9479	-0.000072
235.1546	0.000604
235.3613	-0.000580
235.5680	0.000245
235.7748	-0.000326
235.9815	0.000012
236.1883	-0.000411
236.3951	0.001704
236.6018	0.001472
236.8087	0.001895
237.0155	0.000414
237.2223	-0.000601
237.4292	0.000689
237.6360	0.000478
237.8429	0.001641
238.0498	-0.000199
238.2567	-0.000622
238.4636	0.002021
238.6706	0.000858
238.8775	-0.000199
239.0845	-0.000643
239.2915	-0.000030
239.4985	-0.001172
239.7055	-0.000432
239.9125	-0.001680
240.1195	0.000308
240.3266	-0.000474
240.5337	0.000287
240.7407	0.001070
240.9478	-0.000918
241.1549	-0.001680
241.3621	0.000456
241.5692	-0.000389
241.7764	0.000604
241.9835	-0.000432
242.1907	0.000182
242.3979	-0.000834
242.6051	0.000964
242.8124	0.000731
243.0196	-0.000728
243.2269	-0.000326
243.4341	0.000816
243.6414	0.000372
243.8487	0.000626
244.0560	0.002275
244.2634	0.001175
244.4707	-0.000474
244.6781	0.000224
244.8854	-0.000051
245.0928	0.000414
245.3002	-0.001806
245.5076	-0.000538
245.7151	-0.000516
245.9225	0.000837
246.1300	-0.000834
246.3375	0.000393
246.5449	-0.000559
246.7524	-0.000072
246.9600	-0.000072
247.1675	0.002254
247.3750	0.001006
247.5826	0.001049
247.7902	-0.001976
247.9978	0.000626
248.2054	-0.000326
248.4130	-0.000368
248.6206	0.000647
248.8283	0.000160
249.0359	0.002021
249.2436	0.001704
249.4513	-0.000326
249.6590	-0.000495
249.8667	0.000266
250.0745	0.000182
250.2822	-0.000305
250.4900	-0.000411
250.6978	-0.001976
250.9056	0.000351
251.1134	-0.000178
251.3212	0.001620
251.5290	0.000012
251.7369	0.000055
251.9447	-0.001553
252.1526	-0.000326
252.3605	0.000160
252.5684	0.000456
252.7763	-0.001383
252.9843	-0.000474
253.1922	-0.001130
253.4002	0.001091
253.6082	-0.000411
253.8162	-0.000516
254.0242	-0.001405
254.2322	0.000435
254.4402	-0.000030
254.6483	0.000287
254.8564	-0.001172
255.0644	0.000033
255.2725	-0.000030
255.4806	-0.000347
255.6888	-0.001743
255.8969	0.000816
256.1051	-0.000939
256.3132	0.000266
256.5214	0.002127
256.7296	0.000287
256.9378	0.000330
257.1460	0.000435
257.3543	-0.001214
257.5625	0.001154
257.7708	-0.001743
257.9791	-0.001405
258.1874	-0.001130
258.3957	0.002169
258.6040	-0.000368
258.8124	0.001598
259.0207	0.001049
259.2291	0.001345
259.4375	-0.000939
259.6459	-0.000411
259.8543	-0.000432
260.0627	0.001239
260.2711	-0.000559
260.4796	-0.001003
260.6881	0.001324
260.8965	0.000604
261.1050	-0.000326
261.3135	-0.000559
261.5221	-0.000982
261.7306	0.002148
261.9392	0.000922
262.1477	0.001450
262.3563	0.001006
262.5649	-0.000157
262.7735	0.001260
262.9822	0.000266
263.1908	-0.000305
263.3995	0.000731
263.6081	-0.000411
263.8168	-0.001214
264.0255	0.000203
264.2342	-0.000347
264.4429	-0.001489
264.6517	0.001704
264.8604	-0.000030
265.0692	-0.000897
265.2780	-0.001616
265.4868	-0.001087
265.6956	-0.001172
265.9044	0.002635
266.1133	-0.000601
266.3221	0.000689
266.5310	0.000076
266.7399	0.000520
266.9488	0.000372
267.1577	-0.000918
267.3666	-0.000157
267.5755	-0.000834
267.7845	-0.000812
267.9935	-0.000009
268.2024	0.000033
268.4114	-0.000389
268.6205	-0.001193
268.8295	-0.000305
269.0385	0.000435
269.2476	0.001620
269.4566	-0.000072
269.6657	0.001197
269.8748	0.000097
270.0839	0.000689
270.2931	-0.001151
270.5022	0.000478
270.7114	-0.000157
270.9205	-0.000072
271.1297	0.000308
271.3389	0.001556
271.5481	0.000499
271.7573	0.000139
271.9666	-0.000326
272.1758	-0.000538
272.3851	-0.001151
272.5944	-0.000368
272.8037	-0.001468
273.0130	-0.001278
273.2223	0.000330
273.4316	0.000224
273.6410	-0.000220
273.8504	0.001958
274.0597	-0.000538
274.2691	0.000456
274.4785	-0.001722
274.6880	-0.001362
274.8974	0.000499
275.1069	-0.000580
275.3163	-0.001680
275.5258	-0.001849
275.7353	-0.001722
275.9448	-0.000368
276.1543	-0.001257
276.3639	-0.000347
276.5734	-0.000686
276.7830	-0.001828
276.9926	-0.000241
277.2022	-0.000474
277.4118	-0.001447
277.6214	-0.000284
277.8310	-0.001976
278.0407	0.000626
278.2503	0.000118
278.4600	0.000816
278.6697	0.001345
278.8794	-0.000749
279.0891	-0.001510
279.2989	0.000055
279.5086	0.000922
279.7184	0.000287
279.9281	-0.001468
280.1379	0.000816
280.3477	-0.001489
280.5576	-0.000982
280.7674	0.000668
280.9772	0.000160
281.1871	0.000118
281.3970	-0.000453
281.6069	0.001281
281.8168	0.000795
282.0267	0.000393
282.2366	-0.001172
282.4466	-0.000284
282.6565	0.000478
282.8665	-0.000326
283.0765	0.000583
283.2865	0.001746
283.4965	0.000858
283.7065	0.000647
283.9166	-0.000812
284.1266	-0.001172
284.3367	-0.000220
284.5468	0.000266
284.7569	-0.000368
284.9670	-0.000241
285.1771	0.000118
285.3873	-0.000030
285.5974	0.000541
285.8076	0.001916
286.0178	0.000858
286.2280	-0.000136
286.4382	0.001683
286.6484	0.000499
286.8587	0.001831
287.0689	0.000160
287.2792	0.001281
287.4895	0.000203
287.6998	0.000689
287.9101	-0.000263
288.1204	0.000456
288.3308	0.000393
288.5411	0.000203
288.7515	0.000076
288.9619	-0.000093
289.1723	-0.000411
289.3827	-0.000791
289.5931	-0.000474
289.8035	-0.000453
290.0140	0.000499
290.2245	0.000710
290.4349	-0.000622
290.6454	0.000985
290.8559	0.000435
291.0665	-0.000453
291.2770	-0.000749
291.4875	0.000774
291.6981	-0.000834
291.9087	-0.001722
292.1193	-0.000834
292.3299	0.000372
292.5405	0.001197
292.7511	0.000879
292.9618	-0.000580
293.1724	0.000055
293.3831	0.002402
293.5938	0.000055
293.8045	-0.001003
294.0152	-0.000326
294.2260	-0.000791
294.4367	0.000604
294.6475	-0.001616
294.8582	0.000499
295.0690	-0.001574
295.2798	0.000414
295.4906	-0.000136
295.7015	-0.001489
295.9123	0.000245
296.1232	-0.000347
296.3340	0.000414
296.5449	-0.000136
296.7558	-0.000580
296.9667	-0.000834
297.1777	-0.000686
297.3886	-0.000136
297.5995	-0.000136
297.8105	0.001916
298.0215	0.000033
298.2325	-0.000664
298.4435	-0.000051
298.6545	0.000774
298.8656	0.001133
299.0766	-0.000664
299.2877	-0.001891
299.4988	-0.000199
299.7099	-0.000389
299.9210	0.000689
300.1321	0.002212
300.3432	-0.000051
300.5544	0.000478
300.7655	0.000182
300.9767	-0.000093
301.1879	-0.000516
301.3991	-0.000474
301.6103	0.000372
301.8215	-0.001616
302.0328	0.000668
302.2441	0.000478
302.4553	0.000520
302.6666	-0.000389
302.8779	-0.000707
303.0892	-0.001870
303.3006	0.001387
303.5119	0.000837
303.7233	0.000266
303.9346	0.000689
304.1460	0.000055
304.3574	0.001873
304.5688	-0.000009
304.7803	-0.001045
304.9917	0.001598
305.2031	0.000287
305.4146	-0.000326
305.6261	0.000774
305.8376	-0.000559
306.0491	-0.000834
306.2606	0.000266
306.4722	-0.001553
306.6837	-0.001235
306.8953	-0.000749
307.1069	0.000139
307.3184	0.000647
307.5301	-0.000009
307.7417	-0.001066
307.9533	0.000160
308.1650	-0.000749
308.3766	0.000985
308.5883	-0.000770
308.8000	0.000478
309.0117	-0.000093
309.2234	0.000033
309.4351	-0.001151
309.6469	-0.001637
309.8586	0.000351
310.0704	0.001789
310.2822	0.000901
310.4940	0.000731
310.7058	-0.001257
310.9176	-0.000516
311.1295	-0.001912
311.3413	0.000541
311.5532	-0.000982
311.7651	0.000055
311.9770	-0.001066
312.1889	0.001768
312.4008	-0.001426
312.6127	-0.001087
312.8247	-0.001468
313.0366	0.000520
313.2486	-0.000982
313.4606	-0.000051
313.6726	0.000287
313.8846	0.000901
314.0967	0.000266
314.3087	-0.001066
314.5208	-0.000474
314.7328	0.000308
314.9449	-0.000411
315.1570	0.000076
315.3692	0.000858
315.5813	0.001133
315.7934	0.000583
316.0056	0.000562
316.2177	-0.000580
316.4299	-0.001257
316.6421	-0.000411
316.8543	-0.000960
317.0666	-0.000664
317.2788	-0.001954
317.4911	0.000118
317.7033	-0.000263
317.9156	-0.000157
318.1279	-0.000051
318.3402	-0.000347
318.5525	-0.000664
318.7649	-0.001849
318.9772	-0.001024
319.1896	0.000097
319.4019	0.000795
319.6143	0.000478
319.8267	0.000435
320.0392	-0.000093
320.2516	-0.001595
320.4640	-0.001130
320.6765	-0.001193
320.8890	-0.000347
321.1014	-0.001299
321.3139	0.001049
321.5265	0.001112
321.7390	0.000287
321.9515	-0.000770
322.1641	-0.000982
322.3766	-0.000580
322.5892	0.000435
322.8018	0.000012
323.0144	0.000393
323.2270	0.001091
323.4397	-0.001109
323.6523	-0.000664
323.8650	-0.000347
324.0777	0.000731
324.2904	0.000055
324.5031	0.000330
324.7158	0.000499
324.9285	-0.000115
325.1412	-0.000136
325.3540	-0.000601
325.5668	-0.002800
325.7796	-0.000876
325.9924	-0.000686
326.2052	0.000689
326.4180	-0.000115
326.6308	0.001197
326.8437	-0.002102
327.0566	0.000033
327.2694	0.000414
327.4823	-0.001045
327.6952	0.001281
327.9082	0.001450
328.1211	-0.001637
328.3340	-0.000601
328.5470	0.000118
328.7600	-0.000474
328.9730	0.000330
329.1860	0.000224
329.3990	0.000710
329.6120	0.000562
329.8251	-0.000389
330.0381	0.001408
330.2512	-0.000220
330.4643	0.000858
330.6774	-0.000559
330.8905	-0.000749
331.1036	0.000985
331.3167	0.000626
331.5299	-0.000664
331.7431	-0.000178
331.9562	-0.001553
332.1694	-0.000030
332.3826	-0.001764
332.5959	0.000901
332.8091	0.000182
333.0223	0.000245
333.2356	0.000689
333.4489	-0.000241
333.6622	-0.000220
333.8755	0.000160
334.0888	-0.000411
334.3021	-0.000263
334.5154	0.001070
334.7288	0.000964
334.9422	-0.000051
335.1555	-0.000791
335.3689	0.001006
335.5823	0.001556
335.7958	-0.000157
336.0092	0.000985
336.2227	0.000964
336.4361	-0.000115
336.6496	-0.000812
336.8631	-0.000707
337.0766	-0.000072
337.2901	-0.000326
337.5036	-0.000538
337.7172	0.001408
337.9307	-0.002272
338.1443	0.000076
338.3579	0.000033
338.5715	0.001873
338.7851	-0.001235
338.9987	-0.000326
339.2124	-0.002335
339.4260	0.000456
339.6397	-0.001172
339.8533	0.001197
340.0670	-0.001405
340.2807	0.000055
340.4945	-0.000622
340.7082	0.000774
340.9219	0.000033
341.1357	0.000435
341.3495	-0.000960
341.5633	-0.000051
341.7771	-0.000368
341.9909	0.003459
342.2047	-0.001003
342.4185	-0.001087
342.6324	0.000033
342.8463	-0.000918
343.0601	0.000224
343.2740	0.000795
343.4879	0.000076
343.7019	-0.000495
343.9158	0.000456
344.1297	0.001006
344.3437	-0.000791
344.5577	0.000414
344.7717	-0.000812
344.9857	0.000816
345.1997	0.000203
345.4137	0.002043
345.6277	-0.000918
345.8418	-0.001976
346.0559	0.001281
346.2699	0.001387
346.4840	-0.000009
346.6981	0.000245
346.9123	-0.000495
347.1264	-0.000136
347.3406	-0.000368
347.5547	0.000435
347.7689	0.000414
347.9831	0.000456
348.1973	0.001366
348.4115	0.000668
348.6257	-0.000601
348.8400	0.000943
349.0542	0.000520
349.2685	-0.000199
349.4828	0.000203
349.6971	-0.001933
349.9114	0.000520
350.1257	-0.000538
350.3400	-0.000157
350.5544	0.000330
350.7687	0.000795
350.9831	-0.000093
351.1975	0.001979
351.4119	0.001239
351.6263	0.000943
351.8407	-0.000432
352.0552	0.001704
352.2696	-0.001045
352.4841	-0.000284
352.6986	-0.000389
352.9131	0.000943
353.1276	-0.000812
353.3421	0.000541
353.5566	0.000055
353.7712	-0.000918
353.9858	0.001493
354.2003	0.001175
354.4149	-0.000580
354.6295	-0.000072
354.8441	-0.000157
355.0588	0.000689
355.2734	-0.000474
355.4881	0.000985
355.7027	0.000901
355.9174	-0.001828
356.1321	-0.001806
356.3468	-0.001658
356.5615	-0.000812
356.7763	0.000499
356.9910	0.001218
357.2058	0.000182
357.4206	-0.000220
357.6353	-0.001341
357.8501	0.000731
358.0650	0.000456
358.2798	0.001070
358.4946	0.000478
358.7095	0.001852
358.9243	-0.000157
359.1392	-0.000622
359.3541	-0.002420
359.5690	0.000541
359.7839	0.000372
359.9989	-0.000009
360.2138	-0.000347
360.4288	-0.001214
360.6438	0.000583
360.8587	0.000816
361.0737	0.000351
361.2888	-0.000220
361.5038	0.000774
361.7188	0.001472
361.9339	0.000604
362.1489	-0.000368
362.3640	0.000033
362.5791	-0.001045
362.7942	-0.000368
363.0093	-0.000263
363.2245	0.000901
363.4396	0.001091
363.6548	0.000351
363.8699	0.001281
364.0851	0.000922
364.3003	0.000858
364.5155	-0.000432
364.7308	0.000562
364.9460	-0.000960
365.1612	-0.000030
365.3765	-0.000559
365.5918	-0.000559
365.8071	0.000245
366.0224	0.001598
366.2377	-0.001045
366.4530	-0.000220
366.6684	-0.000664
366.8837	0.000499
367.0991	-0.000199
367.3145	-0.001151
367.5299	-0.001574
367.7453	-0.000897
367.9607	0.000351
368.1761	0.000795
368.3916	0.000055
368.6070	0.000668
368.8225	-0.000728
369.0380	-0.000411
369.2535	-0.000728
369.4690	-0.000580
369.6845	0.000076
369.9001	0.001450
370.1156	-0.000389
370.3312	0.000012
370.5468	-0.000495
370.7624	-0.000876
370.9780	0.000456
371.1936	0.000647
371.4092	0.000139
371.6249	0.000012
371.8405	0.000203
372.0562	-0.001722
372.2719	0.001514
372.4876	-0.000960
372.7033	-0.000284
372.9190	-0.000453
373.1348	-0.000411
373.3505	-0.001087
373.5663	0.001641
373.7820	-0.001087
373.9978	-0.000960
374.2136	0.000753
374.4294	-0.001087
374.6453	0.000668
374.8611	-0.000876
375.0770	0.000943
375.2928	-0.001680
375.5087	-0.000918
375.7246	-0.001976
375.9405	-0.000241
376.1564	0.002423
376.3724	0.000922
376.5883	-0.000791
376.8043	0.000139
377.0203	-0.001278
377.2362	-0.000601
377.4522	0.000076
377.6682	-0.001510
377.8843	0.000203
378.1003	0.000393
378.3164	0.000055
378.5324	-0.000686
378.7485	0.001027
378.9646	-0.000580
379.1807	0.000626
379.3968	-0.001468
379.6129	0.000604
379.8291	-0.000559
380.0452	-0.001257
380.2614	0.000118
380.4776	-0.001553
380.6938	-0.001616
380.9100	0.001535
381.1262	-0.001087
381.3424	0.001049
381.5587	-0.001024
381.7749	-0.000263
381.9912	0.000055
382.2075	-0.000538
382.4238	0.001704
382.6401	-0.001553
382.8564	-0.001066
383.0728	-0.000707
383.2891	-0.000559
383.5055	0.000626
383.7219	-0.000051
383.9382	-0.000707
384.1546	0.000985
384.3711	0.001450
384.5875	-0.000664
384.8039	0.000351
385.0204	-0.000855
385.2368	-0.000474
385.4533	0.001197
385.6698	0.000033
385.8863	0.000182
386.1028	-0.001616
386.3194	0.000266
386.5359	-0.000559
386.7525	-0.000855
386.9690	-0.000220
387.1856	-0.000368
387.4022	-0.000368
387.6188	0.000647
387.8355	0.000224
388.0521	-0.001151
388.2687	-0.000812
388.4854	-0.000432
388.7021	-0.000305
388.9188	0.000414
389.1355	0.000478
389.3522	-0.000093
389.5689	-0.000580
389.7856	-0.001933
390.0024	-0.001320
390.2192	-0.000474
390.4359	-0.000115
390.6527	0.000731
390.8695	-0.000284
391.0863	-0.000157
391.3032	-0.000072
391.5200	0.000224
391.7369	-0.000834
391.9537	0.000879
392.1706	-0.000241
392.3875	-0.000093
392.6044	0.000520
392.8213	0.000774
393.0383	-0.001235
393.2552	-0.000559
393.4722	-0.000157
393.6891	-0.000072
393.9061	-0.000749
394.1231	0.000224
394.3401	-0.000411
394.5572	-0.001045
394.7742	-0.000220
394.9912	0.000964
395.2083	-0.001151
395.4254	0.000266
395.6425	0.000330
395.8596	0.000499
396.0767	-0.001891
396.2938	-0.000664
396.5109	0.000118
396.7281	-0.001235
396.9453	-0.000220
397.1624	-0.000093
397.3796	-0.000770
397.5968	0.000499
397.8140	0.000478
398.0313	-0.000918
398.2485	-0.000157
398.4658	-0.000157
398.6830	-0.001235
398.9003	-0.000326
399.1176	0.000245
399.3349	0.002021
399.5522	-0.000686
399.7696	-0.000326
399.9869	0.000182
400.2043	0.000435
400.4216	-0.001130
400.6390	-0.001278
400.8564	0.000118
401.0738	0.000351
401.2912	-0.001489
401.5087	0.001937
401.7261	-0.000559
401.9436	-0.000093
402.1610	-0.001701
402.3785	-0.000622
402.5960	0.000287
402.8135	-0.000157
403.0310	-0.000093
403.2486	0.000203
403.4661	-0.001722
403.6837	0.000943
403.9013	-0.000305
404.1189	-0.000411
404.3365	-0.000897
404.5541	-0.000622
404.7717	-0.001066
404.9893	0.000710
405.2070	-0.000474
405.4246	-0.000474
405.6423	-0.000834
405.8600	0.000351
406.0777	-0.001828
406.2954	-0.000368
406.5131	-0.001870
406.7309	-0.000389
406.9486	-0.000495
407.1664	-0.000136
407.3842	0.000203
407.6020	-0.000136
407.8198	-0.001257
408.0376	-0.000559
408.2554	-0.000030
408.4733	0.000308
408.6911	0.001979
408.9090	-0.000559
409.1269	0.001514
409.3448	-0.000411
409.5627	-0.000326
409.7806	-0.002208
409.9985	0.002635
410.2165	0.001006
410.4344	-0.000960
410.6524	-0.000199
410.8704	0.000224
411.0884	-0.000199
411.3064	0.000499
411.5244	0.000182
411.7424	-0.000072
411.9605	-0.000707
412.1785	-0.000178
412.3966	0.002021
412.6147	-0.000601
412.8328	0.000837
413.0509	0.000330
413.2690	0.000139
413.4871	0.000478
413.7053	0.000266
413.9234	-0.000136
414.1416	0.000520
414.3598	0.000858
414.5780	-0.000220
414.7962	-0.000643
415.0144	0.001133
415.2326	0.001472
415.4509	-0.001976
415.6692	0.001006
415.8874	-0.000432
416.1057	0.000774
416.3240	-0.000601
416.5423	0.000287
416.7606	-0.000559
416.9790	0.000731
417.1973	-0.000284
417.4157	0.000858
417.6341	0.001197
417.8524	-0.001045
418.0708	-0.000199
418.2893	0.000182
418.5077	-0.001151
418.7261	0.001746
418.9446	-0.001637
419.1630	0.000160
419.3815	-0.000622
419.6000	0.000097
419.8185	-0.001785
420.0370	0.000901
420.2555	-0.000728
420.4741	0.000182
420.6926	-0.000664
420.9112	0.000689
421.1298	-0.001087
421.3483	0.001027
421.5669	-0.001468
421.7856	0.000351
422.0042	0.000033
422.2228	-0.000834
422.4415	0.000837
422.6601	-0.001130
422.8788	-0.001595
423.0975	0.001429
423.3162	-0.001658
423.5349	-0.000178
423.7536	-0.000305
423.9724	0.000076
424.1911	-0.001214
424.4099	0.001027
424.6287	-0.001130
424.8475	0.000118
425.0663	-0.000918
425.2851	-0.000136
425.5039	0.006716
