# Wavelength (nm)	Intensity (a.u.)
197.7802	0.000243
197.9842	-0.000455
198.1882	-0.000560
198.3922	-0.000074
198.5963	0.000899
198.8003	-0.000518
199.0044	0.000053
199.2085	0.001977
199.4126	0.001004
199.6168	-0.000053
199.8209	0.000856
200.0251	-0.000772
200.2292	0.000539
200.4334	0.000328
200.6376	0.001026
200.8418	0.000962
201.0461	0.000983
201.2503	-0.000370
201.4546	0.000899
201.6589	0.000391
201.8631	0.001850
202.0674	0.000793
202.2718	0.000708
202.4761	0.000222
202.6805	0.001216
202.8848	-0.000032
203.0892	0.000560
203.2936	0.000560
203.4980	0.000264
203.7024	-0.000243
203.9069	0.001300
204.1113	0.000264
204.3158	-0.000624
204.5203	0.001533
204.7248	0.000476
204.9293	0.000370
205.1338	0.000539
205.3384	-0.000349
205.5430	0.001300
205.7475	0.001152
205.9521	0.002125
206.1567	0.001681
206.3614	0.000539
206.5660	0.001216
206.7706	0.000920
206.9753	0.000899
207.1800	-0.001808
207.3847	0.001512
207.5894	0.001935
207.7941	0.001258
207.9989	0.000032
208.2036	0.000624
208.4084	0.000687
208.6132	-0.001110
208.8180	0.001068
209.0228	-0.001216
209.2276	0.001089
209.4325	-0.000962
209.6373	-0.000032
209.8422	0.000751
210.0471	0.000687
210.2520	0.000137
210.4569	0.001216
210.6618	0.000180
210.8668	0.000011
211.0718	0.000074
211.2767	0.001343
211.4817	0.001491
211.6867	0.001956
211.8918	-0.000645
212.0968	0.000116
212.3018	0.001871
212.5069	0.000455
212.7120	0.001343
212.9171	0.001512
213.1222	-0.001279
213.3273	0.001723
213.5325	0.002231
213.7376	0.000751
213.9428	0.001702
214.1480	0.000095
214.3532	0.000835
214.5584	0.001427
214.7636	0.001491
214.9689	-0.000645
215.1741	-0.001554
215.3794	-0.000433
215.5847	0.000053
215.7900	0.001004
215.9953	0.000730
216.2007	0.001956
216.4060	-0.001131
216.6114	0.000476
216.8168	0.000011
217.0222	0.000793
217.2276	0.000180
217.4330	0.000349
217.6384	0.001195
217.8439	0.003352
218.0494	0.000159
218.2548	0.002210
218.4603	0.000730
218.6659	0.001871
218.8714	0.001216
219.0769	0.000243
219.2825	-0.000201
219.4881	-0.000624
219.6936	-0.001406
219.8992	0.001808
220.1049	-0.001893
220.3105	-0.000074
220.5161	-0.001089
220.7218	0.001237
220.9275	0.001385
221.1332	0.000687
221.3389	0.000899
221.5446	0.000539
221.7503	0.000433
221.9561	0.001300
222.1618	-0.000497
222.3676	-0.000032
222.5734	0.000243
222.7792	0.000624
222.9850	0.000011
223.1909	-0.000328
223.3967	0.001279
223.6026	0.001618
223.8085	-0.000581
224.0144	0.000856
224.2203	0.002337
224.4262	0.001026
224.6322	0.000095
224.8381	-0.000180
225.0441	-0.001702
225.2501	0.000285
225.4561	0.000581
225.6621	0.000983
225.8681	0.000856
226.0742	-0.000180
226.2802	-0.001195
226.4863	-0.000095
226.6924	0.000476
226.8985	-0.000180
227.1046	-0.002231
227.3107	0.000666
227.5169	-0.000539
227.7230	0.001279
227.9292	0.001935
228.1354	0.001639
228.3416	0.000814
228.5478	0.001596
228.7541	-0.000285
228.9603	0.000476
229.1666	-0.000666
229.3729	-0.000349
229.5791	-0.001554
229.7855	0.000497
229.9918	-0.000497
230.1981	0.000011
230.4045	0.000222
230.6108	-0.000137
230.8172	0.001491
231.0236	0.000476
231.2300	0.000137
231.4364	-0.000497
231.6429	0.000095
231.8493	0.001871
232.0558	-0.000222
232.2623	0.000264
232.4688	0.000899
232.6753	-0.000793
232.8818	0.000645
233.0884	0.002337
233.2949	0.000391
233.5015	0.000835
233.7081	0.001364
233.9147	0.000412
234.1213	0.001533
234.3279	0.000751
234.5346	-0.000285
234.7413	0.001744
234.9479	-0.001893
235.1546	-0.000349
235.3613	0.001406
235.5680	0.000433
235.7748	0.000053
235.9815	0.000730
236.1883	0.001470
236.3951	0.001216
236.6018	0.001808
236.8087	0.001470
237.0155	0.000983
237.2223	0.000412
237.4292	0.001216
237.6360	0.001470
237.8429	-0.000349
238.0498	0.000180
238.2567	-0.000370
238.4636	0.002844
238.6706	-0.000116
238.8775	-0.000116
239.0845	0.002527
239.2915	0.001808
239.4985	-0.000581
239.7055	0.001279
239.9125	0.000687
240.1195	0.001068
240.3266	0.000433
240.5337	-0.000666
240.7407	0.000962
240.9478	0.000856
241.1549	-0.000137
241.3621	0.001427
241.5692	0.001596
241.7764	0.001364
241.9835	0.001808
242.1907	0.000180
242.3979	-0.001174
242.6051	0.002252
242.8124	0.001491
243.0196	0.001491
243.2269	-0.000391
243.4341	0.001364
243.6414	-0.000433
243.8487	0.002041
244.0560	0.000180
244.2634	0.001068
244.4707	-0.000730
244.6781	0.000116
244.8854	0.000603
245.0928	-0.000032
245.3002	0.001491
245.5076	0.000560
245.7151	0.000370
245.9225	0.001047
246.1300	0.000708
246.3375	0.000581
246.5449	0.000159
246.7524	-0.000180
246.9600	0.001258
247.1675	0.001871
247.3750	0.000645
247.5826	0.000899
247.7902	-0.000370
247.9978	0.001935
248.2054	-0.000835
248.4130	0.000159
248.6206	0.001448
248.8283	0.000116
249.0359	0.002146
249.2436	0.000476
249.4513	0.000581
249.6590	0.000666
249.8667	0.001152
250.0745	0.000391
250.2822	-0.000687
250.4900	-0.000835
250.6978	-0.000285
250.9056	0.000751
251.1134	0.000222
251.3212	0.003204
251.5290	-0.000412
251.7369	-0.002146
251.9447	0.000053
252.1526	-0.000878
252.3605	-0.000116
252.5684	0.000137
252.7763	0.000666
252.9843	0.001343
253.1922	0.000920
253.4002	-0.000222
253.6082	0.000159
253.8162	0.000053
254.0242	0.001406
254.2322	0.000899
254.4402	-0.000560
254.6483	0.001279
254.8564	-0.000032
255.0644	0.001195
255.2725	-0.000349
255.4806	0.001491
255.6888	-0.001026
255.8969	0.001448
256.1051	0.001004
256.3132	0.001089
256.5214	0.000878
256.7296	-0.000222
256.9378	-0.000074
257.1460	0.001575
257.3543	-0.000878
257.5625	-0.000032
257.7708	0.000053
257.9791	0.000074
258.1874	0.000814
258.3957	0.000941
258.6040	-0.000159
258.8124	0.000899
259.0207	0.001068
259.2291	-0.000730
259.4375	0.000264
259.6459	0.000730
259.8543	-0.000328
260.0627	0.001110
260.2711	0.000624
260.4796	0.000518
260.6881	0.002062
260.8965	0.000391
261.1050	0.001850
261.3135	0.001004
261.5221	-0.000328
261.7306	0.000666
261.9392	0.000962
262.1477	0.002189
262.3563	0.001660
262.5649	0.000476
262.7735	-0.000328
262.9822	0.000856
263.1908	0.000159
263.3995	0.000878
263.6081	-0.000730
263.8168	0.000032
264.0255	-0.000264
264.2342	-0.000032
264.4429	-0.000412
264.6517	-0.000011
264.8604	0.002315
265.0692	0.000497
265.2780	-0.002337
265.4868	0.000412
265.6956	-0.001364
265.9044	0.002146
266.1133	-0.000370
266.3221	0.002907
266.5310	0.000983
266.7399	0.000814
266.9488	0.001914
267.1577	0.000645
267.3666	0.001026
267.5755	0.002421
267.7845	-0.000581
267.9935	0.001322
268.2024	0.001068
268.4114	0.002569
268.6205	0.000264
268.8295	0.000391
269.0385	-0.000391
269.2476	0.002781
269.4566	0.000560
269.6657	0.000560
269.8748	0.000328
270.0839	0.001977
270.2931	0.000539
270.5022	-0.000137
270.7114	0.000116
270.9205	0.000835
271.1297	-0.001195
271.3389	0.001195
271.5481	-0.000920
271.7573	0.000645
271.9666	0.000243
272.1758	0.000708
272.3851	0.000032
272.5944	0.001258
272.8037	-0.000983
273.0130	0.000560
273.2223	-0.000666
273.4316	-0.000264
273.6410	-0.000159
273.8504	0.001448
274.0597	-0.000920
274.2691	0.000285
274.4785	0.000391
274.6880	0.000835
274.8974	-0.000011
275.1069	0.000159
275.3163	-0.000835
275.5258	0.000518
275.7353	-0.001195
275.9448	-0.000476
276.1543	0.001998
276.3639	-0.000687
276.5734	0.000455
276.7830	0.001660
276.9926	0.000433
277.2022	0.001216
277.4118	0.000011
277.6214	-0.000264
277.8310	0.000095
278.0407	-0.000708
278.2503	0.001216
278.4600	0.001787
278.6697	0.001110
278.8794	0.001744
279.0891	0.000243
279.2989	0.001195
279.5086	0.000011
279.7184	0.001406
279.9281	-0.000243
280.1379	0.003056
280.3477	0.001744
280.5576	-0.000116
280.7674	0.000962
280.9772	0.000856
281.1871	0.000793
281.3970	0.000455
281.6069	0.002950
281.8168	0.001596
282.0267	0.000962
282.2366	-0.000032
282.4466	-0.000011
282.6565	0.000772
282.8665	0.000349
283.0765	0.001174
283.2865	0.001152
283.4965	0.000370
283.7065	0.000476
283.9166	-0.000011
284.1266	-0.000476
284.3367	-0.000137
284.5468	0.001279
284.7569	0.000835
284.9670	-0.000201
285.1771	-0.000285
285.3873	0.001343
285.5974	0.001279
285.8076	0.001554
286.0178	0.000983
286.2280	0.000011
286.4382	0.001681
286.6484	0.000751
286.8587	0.001956
287.0689	-0.000222
287.2792	0.002823
287.4895	0.002886
287.6998	0.000666
287.9101	0.000476
288.1204	0.001533
288.3308	-0.001152
288.5411	-0.000095
288.7515	-0.000349
288.9619	0.000011
289.1723	0.000412
289.3827	-0.000581
289.5931	0.000328
289.8035	0.001956
290.0140	-0.000222
290.2245	0.000455
290.4349	0.001406
290.6454	0.000645
290.8559	-0.000222
291.0665	0.000412
291.2770	0.000222
291.4875	-0.000264
291.6981	-0.000285
291.9087	0.001829
292.1193	-0.000053
292.3299	0.001152
292.5405	0.000349
292.7511	0.000095
292.9618	0.000095
293.1724	0.000772
293.3831	0.002189
293.5938	0.000159
293.8045	-0.000116
294.0152	0.002379
294.2260	0.000666
294.4367	0.001470
294.6475	-0.000920
294.8582	0.000391
295.0690	0.000116
295.2798	0.000391
295.4906	-0.000095
295.7015	-0.001300
295.9123	0.000285
296.1232	-0.000116
296.3340	0.001935
296.5449	0.000645
296.7558	0.000137
296.9667	0.001787
297.1777	-0.000603
297.3886	-0.001998
297.5995	0.002950
297.8105	0.002083
298.0215	-0.000730
298.2325	-0.000941
298.4435	0.000053
298.6545	0.000222
298.8656	-0.000116
299.0766	0.001322
299.2877	-0.000264
299.4988	0.000856
299.7099	0.000539
299.9210	0.001110
300.1321	0.000920
300.3432	0.001596
300.5544	0.000835
300.7655	0.001808
300.9767	0.000603
301.1879	0.000730
301.3991	-0.001026
301.6103	0.001512
301.8215	-0.000137
302.0328	0.001702
302.2441	-0.000328
302.4553	0.001279
302.6666	0.001004
302.8779	-0.001004
303.0892	0.000560
303.3006	0.000856
303.5119	0.000264
303.7233	0.001300
303.9346	0.001660
304.1460	0.001195
304.3574	0.000095
304.5688	0.000814
304.7803	-0.000730
304.9917	0.001110
305.2031	-0.001470
305.4146	0.002041
305.6261	0.000137
305.8376	-0.000730
306.0491	0.001279
306.2606	0.000518
306.4722	-0.000603
306.6837	0.000243
306.8953	0.000137
307.1069	0.000391
307.3184	-0.000899
307.5301	0.001174
307.7417	-0.000201
307.9533	0.000159
308.1650	-0.000391
308.3766	0.000962
308.5883	-0.000095
308.8000	0.002062
309.0117	0.000920
309.2234	0.000011
309.4351	-0.001047
309.6469	0.001174
309.8586	0.000772
310.0704	0.001300
310.2822	0.000814
310.4940	0.001406
310.7058	-0.000370
310.9176	0.000095
311.1295	0.000560
311.3413	0.002485
311.5532	-0.000201
311.7651	0.001660
311.9770	-0.000243
312.1889	0.001470
312.4008	-0.000285
312.6127	-0.000328
312.8247	-0.001618
313.0366	0.000539
313.2486	-0.000730
313.4606	0.000835
313.6726	0.001026
313.8846	0.001343
314.0967	0.000497
314.3087	-0.000603
314.5208	0.000518
314.7328	0.000455
314.9449	0.000983
315.1570	0.000645
315.3692	0.001660
315.5813	0.000032
315.7934	-0.000624
316.0056	-0.000137
316.2177	0.001047
316.4299	0.000772
316.6421	-0.000581
316.8543	0.000391
317.0666	-0.000624
317.2788	0.000201
317.4911	-0.000666
317.7033	0.000180
317.9156	0.000518
318.1279	-0.000159
318.3402	-0.000603
318.5525	-0.001850
318.7649	-0.001110
318.9772	-0.000518
319.1896	0.000539
319.4019	-0.000328
319.6143	0.001110
319.8267	0.001343
320.0392	-0.001300
320.2516	-0.000159
320.4640	0.000878
320.6765	-0.000814
320.8890	-0.001787
321.1014	0.000201
321.3139	-0.001174
321.5265	0.002041
321.7390	0.002125
321.9515	-0.000433
322.1641	0.000285
322.3766	0.000687
322.5892	-0.000603
322.8018	0.000814
323.0144	0.000708
323.2270	0.001216
323.4397	-0.000518
323.6523	-0.001004
323.8650	0.001406
324.0777	-0.000180
324.2904	0.000751
324.5031	0.000814
324.7158	0.000137
324.9285	-0.000349
325.1412	0.001766
325.3540	0.000476
325.5668	-0.001596
325.7796	0.000730
325.9924	-0.000328
326.2052	0.000983
326.4180	-0.000856
326.6308	0.001322
326.8437	-0.000180
327.0566	0.000137
327.2694	0.001300
327.4823	0.001427
327.6952	0.000518
327.9082	0.002146
328.1211	-0.000645
328.3340	-0.000032
328.5470	0.000095
328.7600	-0.000793
328.9730	-0.000751
329.1860	0.000856
329.3990	-0.000328
329.6120	0.000708
329.8251	-0.000307
330.0381	0.000011
330.2512	0.000328
330.4643	0.001829
330.6774	0.000581
330.8905	0.001406
331.1036	-0.000074
331.3167	0.000412
331.5299	-0.000285
331.7431	0.000285
331.9562	-0.000159
332.1694	-0.000455
332.3826	0.000095
332.5959	-0.000032
332.8091	0.000412
333.0223	0.000539
333.2356	0.000730
333.4489	0.000581
333.6622	0.000581
333.8755	0.001533
334.0888	-0.001322
334.3021	0.000856
334.5154	0.002527
334.7288	0.002527
334.9422	0.001787
335.1555	0.000222
335.3689	0.000539
335.5823	0.002062
335.7958	0.000814
336.0092	0.002252
336.2227	0.000222
336.4361	-0.000856
336.6496	0.000687
336.8631	0.001343
337.0766	0.000476
337.2901	-0.000137
337.5036	0.001279
337.7172	-0.000328
337.9307	-0.000497
338.1443	0.000391
338.3579	-0.000941
338.5715	0.000433
338.7851	-0.000497
338.9987	0.000624
339.2124	-0.000603
339.4260	0.001596
339.6397	-0.000222
339.8533	0.001047
340.0670	0.002062
340.2807	0.000560
340.4945	0.000835
340.7082	-0.000074
340.9219	-0.001174
341.1357	-0.000180
341.3495	-0.000772
341.5633	0.000497
341.7771	-0.000095
341.9909	0.001427
342.2047	0.000137
342.4185	0.001237
342.6324	-0.000201
342.8463	-0.000962
343.0601	0.001787
343.2740	0.001174
343.4879	0.002231
343.7019	0.001174
343.9158	-0.000222
344.1297	0.000751
344.3437	-0.000032
344.5577	0.000983
344.7717	0.000708
344.9857	0.001322
345.1997	0.001110
345.4137	0.002019
345.6277	0.000941
345.8418	-0.000539
346.0559	0.001575
346.2699	0.000222
346.4840	0.000962
346.6981	-0.000391
346.9123	0.001131
347.1264	0.000687
347.3406	0.000285
347.5547	0.002019
347.7689	0.000137
347.9831	0.000159
348.1973	0.001554
348.4115	0.001512
348.6257	-0.000455
348.8400	0.000560
349.0542	0.000137
349.2685	0.000053
349.4828	0.000751
349.6971	0.000391
349.9114	-0.000920
350.1257	0.002146
350.3400	0.001681
350.5544	0.000391
350.7687	0.002506
350.9831	-0.000730
351.1975	0.001808
351.4119	-0.000222
351.6263	0.000835
351.8407	0.000560
352.0552	0.000370
352.2696	0.000243
352.4841	0.001512
352.6986	0.000603
352.9131	0.002611
353.1276	0.000983
353.3421	0.000328
353.5566	0.000687
353.7712	0.000201
353.9858	0.001596
354.2003	0.001174
354.4149	-0.000518
354.6295	0.000264
354.8441	0.001279
355.0588	0.002062
355.2734	0.000624
355.4881	0.000603
355.7027	0.001258
355.9174	0.000687
356.1321	-0.001702
356.3468	-0.000053
356.5615	0.001364
356.7763	-0.000328
356.9910	0.000011
357.2058	0.000687
357.4206	-0.000497
357.6353	-0.000856
357.8501	0.000433
358.0650	0.000391
358.2798	0.000349
358.4946	0.000666
358.7095	0.001491
358.9243	0.000645
359.1392	0.000835
359.3541	-0.001385
359.5690	0.001047
359.7839	0.000730
359.9989	0.000983
360.2138	0.000708
360.4288	-0.000708
360.6438	0.001723
360.8587	0.000751
361.0737	0.000518
361.2888	-0.001977
361.5038	0.000814
361.7188	0.001533
361.9339	0.000285
362.1489	0.001174
362.3640	0.000307
362.5791	0.001744
362.7942	0.000856
363.0093	0.002675
363.2245	0.000370
363.4396	0.001279
363.6548	-0.000433
363.8699	0.001322
364.0851	0.002189
364.3003	0.002527
364.5155	0.000391
364.7308	0.001216
364.9460	0.000137
365.1612	0.000116
365.3765	0.001047
365.5918	-0.000687
365.8071	-0.001068
366.0224	0.001131
366.2377	0.000708
366.4530	-0.000011
366.6684	-0.000687
366.8837	0.000032
367.0991	0.001448
367.3145	0.000328
367.5299	-0.000285
367.7453	-0.000497
367.9607	-0.000497
368.1761	0.001596
368.3916	-0.000941
368.6070	0.001174
368.8225	-0.001152
369.0380	-0.001406
369.2535	0.001322
369.4690	0.000878
369.6845	-0.000476
369.9001	0.002611
370.1156	0.000983
370.3312	0.001026
370.5468	-0.000328
370.7624	-0.000370
370.9780	0.000433
371.1936	0.000899
371.4092	0.001279
371.6249	0.002823
371.8405	0.001596
372.0562	0.000011
372.2719	-0.000666
372.4876	0.000920
372.7033	-0.001131
372.9190	0.000159
373.1348	0.000328
373.3505	-0.000793
373.5663	0.000793
373.7820	0.001787
373.9978	-0.000455
374.2136	-0.000053
374.4294	-0.000793
374.6453	-0.000074
374.8611	0.000222
375.0770	-0.000349
375.2928	0.000708
375.5087	-0.000264
375.7246	-0.000328
375.9405	-0.000878
376.1564	0.001850
376.3724	0.002929
376.5883	0.001026
376.8043	-0.000370
377.0203	0.000772
377.2362	0.002104
377.4522	0.000603
377.6682	-0.000433
377.8843	0.001322
378.1003	0.001322
378.3164	0.000285
378.5324	0.000391
378.7485	0.002442
378.9646	0.001850
379.1807	-0.000878
379.3968	0.001512
379.6129	0.000983
379.8291	0.000349
380.0452	-0.001364
380.2614	-0.000983
380.4776	-0.000814
380.6938	0.000835
380.9100	0.001512
381.1262	-0.000285
381.3424	0.001047
381.5587	0.000687
381.7749	0.000455
381.9912	0.001279
382.2075	0.000053
382.4238	0.000899
382.6401	0.000560
382.8564	-0.000180
383.0728	0.000180
383.2891	-0.000708
383.5055	0.001089
383.7219	0.000518
383.9382	-0.000666
384.1546	0.001723
384.3711	-0.000159
384.5875	0.000307
384.8039	-0.000264
385.0204	-0.001110
385.2368	0.001004
385.4533	0.001406
385.6698	0.002738
385.8863	-0.000624
386.1028	-0.000180
386.3194	0.000581
386.5359	-0.000137
386.7525	-0.000433
386.9690	0.000116
387.1856	-0.000624
387.4022	-0.000243
387.6188	0.000687
387.8355	-0.000962
388.0521	0.000560
388.2687	-0.000180
388.4854	0.000285
388.7021	0.000581
388.9188	0.000370
389.1355	0.000624
389.3522	0.000159
389.5689	0.001406
389.7856	-0.000433
390.0024	-0.000116
390.2192	0.000645
390.4359	-0.001174
390.6527	-0.000307
390.8695	0.000814
391.0863	0.000222
391.3032	0.001174
391.5200	-0.000137
391.7369	0.000835
391.9537	-0.000328
392.1706	-0.000328
392.3875	-0.000349
392.6044	0.000581
392.8213	0.002146
393.0383	-0.000645
393.2552	-0.000370
393.4722	0.001639
393.6891	-0.000645
393.9061	0.000137
394.1231	0.000560
394.3401	-0.001322
394.5572	-0.001152
394.7742	0.002167
394.9912	0.001174
395.2083	-0.000687
395.4254	0.000793
395.6425	0.001385
395.8596	0.000878
396.0767	-0.000518
396.2938	-0.000180
396.5109	-0.000349
396.7281	0.000201
396.9453	-0.000285
397.1624	0.002294
397.3796	-0.001744
397.5968	0.001195
397.8140	-0.001300
398.0313	-0.000497
398.2485	-0.000624
398.4658	0.001660
398.6830	-0.000581
398.9003	-0.000391
399.1176	0.000476
399.3349	0.000878
399.5522	0.000581
399.7696	0.000581
399.9869	0.000285
400.2043	0.000899
400.4216	-0.000687
400.6390	0.000285
400.8564	-0.000137
401.0738	-0.000455
401.2912	0.000497
401.5087	0.001026
401.7261	0.000476
401.9436	0.001152
402.1610	-0.000856
402.3785	0.000222
402.5960	0.001068
402.8135	-0.000074
403.0310	-0.000772
403.2486	-0.000772
403.4661	0.000159
403.6837	-0.000370
403.9013	0.001343
404.1189	0.000983
404.3365	-0.000116
404.5541	0.001787
404.7717	-0.000455
404.9893	0.001322
405.2070	0.000433
405.4246	0.000243
405.6423	0.000349
405.8600	0.001364
406.0777	-0.000666
406.2954	0.000243
406.5131	0.001470
406.7309	0.000243
406.9486	0.000264
407.1664	-0.000476
407.3842	0.000222
407.6020	0.000201
407.8198	0.000497
408.0376	0.001026
408.2554	0.001512
408.4733	-0.000391
408.6911	0.000116
408.9090	0.000349
409.1269	0.001258
409.3448	-0.000011
409.5627	0.000307
409.7806	-0.000243
409.9985	-0.000370
410.2165	0.000370
410.4344	0.000391
410.6524	-0.000180
410.8704	0.001004
411.0884	0.000983
411.3064	0.001808
411.5244	-0.000074
411.7424	0.000899
411.9605	-0.000581
412.1785	0.000011
412.3966	0.001935
412.6147	0.001470
412.8328	0.001660
413.0509	0.000962
413.2690	-0.000011
413.4871	0.000708
413.7053	-0.001470
413.9234	0.001660
414.1416	-0.000433
414.3598	0.000581
414.5780	-0.000243
414.7962	0.000687
415.0144	0.000793
415.2326	0.001491
415.4509	-0.000983
415.6692	-0.000349
415.8874	0.000835
416.1057	-0.000011
416.3240	-0.001322
416.5423	0.000476
416.7606	0.001279
416.9790	0.000307
417.1973	0.000053
417.4157	-0.000391
417.6341	0.001512
417.8524	0.000433
418.0708	-0.000476
418.2893	0.001068
418.5077	0.000370
418.7261	0.001744
418.9446	0.000264
419.1630	-0.000899
419.3815	0.000772
419.6000	-0.000159
419.8185	-0.001152
420.0370	0.001385
420.2555	0.001152
420.4741	0.001470
420.6926	-0.000983
420.9112	0.000645
421.1298	-0.000412
421.3483	0.000835
421.5669	-0.000349
421.7856	0.000476
422.0042	-0.000624
422.2228	0.000856
422.4415	0.000243
422.6601	-0.000581
422.8788	-0.000116
423.0975	0.000285
423.3162	0.000222
423.5349	-0.000159
423.7536	-0.000159
423.9724	-0.001406
424.1911	0.000285
424.4099	0.002590
424.6287	0.000243
424.8475	0.001174
425.0663	-0.000878
425.2851	-0.000624
425.5039	0.008574
425.7228	0.001744
425.9416	-0.000222
426.1605	-0.000391
426.3793	-0.000116
426.5982	0.001893
426.8171	0.000180
427.0361	0.000793
427.2550	-0.001026
427.4739	0.001068
427.6929	0.000983
427.9118	0.000708
428.1308	0.001300
