# Wavelength (nm)	Intensity (a.u.)
197.7802	-0.000697
197.9842	-0.000401
198.1882	-0.000190
198.3922	0.000190
198.5963	-0.000169
198.8003	0.000655
199.0044	-0.000190
199.2085	-0.000380
199.4126	-0.000528
199.6168	0.000929
199.8209	0.000042
200.0251	-0.000338
200.2292	0.000443
200.4334	-0.001267
200.6376	0.000275
200.8418	0.000591
201.0461	0.000422
201.2503	0.000253
201.4546	-0.000296
201.6589	0.000211
201.8631	0.001816
202.0674	0.000190
202.2718	0.001098
202.4761	0.000929
202.6805	0.000232
202.8848	-0.000211
203.0892	0.000676
203.2936	-0.000465
203.4980	0.000063
203.7024	0.000992
203.9069	-0.000296
204.1113	-0.000148
204.3158	-0.000338
204.5203	0.000929
204.7248	0.000971
204.9293	-0.000528
205.1338	-0.000992
205.3384	-0.000380
205.5430	0.000824
205.7475	-0.001922
205.9521	-0.000063
206.1567	-0.001330
206.3614	-0.000084
206.5660	0.001225
206.7706	0.000929
206.9753	-0.000591
207.1800	-0.000338
207.3847	-0.000866
207.5894	0.000633
207.7941	-0.000127
207.9989	0.000486
208.2036	0.000169
208.4084	-0.000655
208.6132	-0.000950
208.8180	-0.000253
209.0228	0.000486
209.2276	0.001837
209.4325	0.001014
209.6373	0.000063
209.8422	0.000380
210.0471	0.001943
210.2520	-0.000253
210.4569	0.000486
210.6618	-0.000612
210.8668	0.000317
211.0718	-0.000275
211.2767	0.001035
211.4817	0.000359
211.6867	0.001246
211.8918	0.000275
212.0968	0.000676
212.3018	-0.000211
212.5069	0.000443
212.7120	0.000042
212.9171	-0.000042
213.1222	0.000000
213.3273	0.000084
213.5325	-0.000528
213.7376	0.001077
213.9428	-0.000127
214.1480	0.000887
214.3532	0.000887
214.5584	0.000401
214.7636	-0.000338
214.9689	-0.000317
215.1741	0.000655
215.3794	0.001626
215.5847	-0.001922
215.7900	0.000275
215.9953	0.001668
216.2007	0.000950
216.4060	0.000465
216.6114	0.000359
216.8168	0.000401
217.0222	-0.000190
217.2276	0.000591
217.4330	0.000718
217.6384	0.000887
217.8439	0.001478
218.0494	-0.000338
218.2548	0.000042
218.4603	0.000296
218.6659	0.000866
218.8714	-0.000507
219.0769	0.000992
219.2825	-0.000486
219.4881	0.001964
219.6936	-0.000380
219.8992	0.000929
220.1049	0.000211
220.3105	0.000084
220.5161	0.000866
220.7218	0.000127
220.9275	-0.001014
221.1332	0.001563
221.3389	-0.000760
221.5446	0.001204
221.7503	0.000401
221.9561	0.000781
222.1618	-0.000148
222.3676	0.002091
222.5734	0.000486
222.7792	0.000950
222.9850	-0.001732
223.1909	-0.000338
223.3967	0.001373
223.6026	0.000676
223.8085	-0.000253
224.0144	0.001753
224.2203	0.000824
224.4262	0.000253
224.6322	-0.000084
224.8381	-0.000486
225.0441	0.000591
225.2501	0.000655
225.4561	0.000845
225.6621	0.000655
225.8681	0.001563
226.0742	0.000549
226.2802	0.000401
226.4863	0.000845
226.6924	0.000824
226.8985	0.001098
227.1046	0.000929
227.3107	0.000633
227.5169	-0.000317
227.7230	0.000338
227.9292	-0.000253
228.1354	0.000021
228.3416	0.000781
228.5478	0.000655
228.7541	-0.000655
228.9603	0.000929
229.1666	-0.001478
229.3729	0.001056
229.5791	-0.000148
229.7855	0.000063
229.9918	-0.000443
230.1981	0.001394
230.4045	0.001161
230.6108	-0.000401
230.8172	-0.000655
231.0236	0.000507
231.2300	-0.000866
231.4364	0.000655
231.6429	-0.001183
231.8493	0.000549
232.0558	0.001267
232.2623	-0.001351
232.4688	-0.000401
232.6753	0.001753
232.8818	0.000021
233.0884	0.001077
233.2949	0.000042
233.5015	0.000190
233.7081	-0.000190
233.9147	-0.000296
234.1213	0.000000
234.3279	0.000528
234.5346	-0.001056
234.7413	-0.000866
234.9479	-0.001626
235.1546	-0.000232
235.3613	0.000486
235.5680	0.000591
235.7748	-0.001098
235.9815	0.000253
236.1883	-0.001056
236.3951	0.001225
236.6018	0.000422
236.8087	0.000507
237.0155	0.000486
237.2223	0.000422
237.4292	0.000465
237.6360	0.000169
237.8429	0.000190
238.0498	0.001225
238.2567	-0.000655
238.4636	0.000422
238.6706	0.001098
238.8775	0.001394
239.0845	-0.000612
239.2915	-0.001140
239.4985	-0.000591
239.7055	0.000781
239.9125	-0.000063
240.1195	-0.000106
240.3266	0.000781
240.5337	0.000887
240.7407	-0.000169
240.9478	0.001014
241.1549	-0.000824
241.3621	0.001098
241.5692	0.000106
241.7764	0.000676
241.9835	-0.000718
242.1907	0.000190
242.3979	0.000781
242.6051	0.001204
242.8124	-0.001014
243.0196	0.000253
243.2269	0.000739
243.4341	0.000169
243.6414	-0.000211
243.8487	0.000422
244.0560	0.000232
244.2634	0.000275
244.4707	-0.000338
244.6781	-0.000549
244.8854	0.000570
245.0928	0.000992
245.3002	0.000148
245.5076	0.000000
245.7151	0.000549
245.9225	-0.000021
246.1300	0.000887
246.3375	0.001225
246.5449	0.000971
246.7524	-0.000042
246.9600	0.000063
247.1675	0.000570
247.3750	-0.000612
247.5826	-0.000127
247.7902	-0.000633
247.9978	0.000760
248.2054	-0.000275
248.4130	0.000528
248.6206	-0.000655
248.8283	0.000443
249.0359	-0.001225
249.2436	-0.000950
249.4513	-0.000253
249.6590	-0.000697
249.8667	-0.000887
250.0745	-0.000211
250.2822	0.001542
250.4900	-0.000401
250.6978	0.000338
250.9056	0.000106
251.1134	-0.001900
251.3212	-0.000127
251.5290	-0.000802
251.7369	0.000211
251.9447	-0.000633
252.1526	0.001288
252.3605	0.000338
252.5684	-0.000676
252.7763	-0.001014
252.9843	0.001056
253.1922	0.000317
253.4002	-0.000084
253.6082	0.001309
253.8162	0.000380
254.0242	-0.000887
254.2322	-0.000169
254.4402	0.000190
254.6483	0.001436
254.8564	-0.000486
255.0644	-0.000063
255.2725	0.000887
255.4806	0.000824
255.6888	0.001140
255.8969	0.000211
256.1051	0.000422
256.3132	0.001964
256.5214	-0.000992
256.7296	-0.000232
256.9378	0.000338
257.1460	0.000781
257.3543	0.000422
257.5625	-0.000021
257.7708	0.001330
257.9791	0.000021
258.1874	-0.000739
258.3957	0.001246
258.6040	-0.000253
258.8124	0.000190
259.0207	-0.000042
259.2291	0.000063
259.4375	0.000317
259.6459	0.000697
259.8543	0.000232
260.0627	0.001098
260.2711	-0.000106
260.4796	-0.000824
260.6881	0.000739
260.8965	0.000866
261.1050	0.000275
261.3135	-0.000317
261.5221	-0.000570
261.7306	0.000992
261.9392	0.000908
262.1477	-0.000148
262.3563	0.000021
262.5649	0.000570
262.7735	0.000359
262.9822	0.001035
263.1908	-0.000739
263.3995	0.000169
263.6081	0.000507
263.8168	0.001436
264.0255	-0.000760
264.2342	0.000697
264.4429	0.000739
264.6517	0.000992
264.8604	0.000296
265.0692	0.000042
265.2780	0.000929
265.4868	0.000591
265.6956	0.000443
265.9044	-0.000253
266.1133	0.001077
266.3221	0.000845
266.5310	-0.000084
266.7399	-0.000127
266.9488	0.000465
267.1577	0.000655
267.3666	0.000697
267.5755	-0.000275
267.7845	0.000211
267.9935	-0.000486
268.2024	-0.000380
268.4114	0.002027
268.6205	0.000655
268.8295	0.001140
269.0385	-0.000275
269.2476	0.000718
269.4566	0.000063
269.6657	0.001035
269.8748	0.000063
270.0839	0.000465
270.2931	0.000380
270.5022	0.000697
270.7114	-0.000084
270.9205	0.000781
271.1297	0.000739
271.3389	0.001204
271.5481	0.000296
271.7573	-0.000802
271.9666	-0.000507
272.1758	0.000190
272.3851	0.001436
272.5944	0.000760
272.8037	-0.000781
273.0130	-0.000148
273.2223	-0.000718
273.4316	0.000190
273.6410	0.000169
273.8504	-0.000042
274.0597	0.000697
274.2691	0.001119
274.4785	-0.000275
274.6880	0.000359
274.8974	0.000317
275.1069	0.001373
275.3163	0.000106
275.5258	0.001077
275.7353	0.000866
275.9448	-0.000275
276.1543	0.000000
276.3639	-0.000633
276.5734	0.001204
276.7830	0.001056
276.9926	-0.000781
277.2022	-0.000063
277.4118	0.000697
277.6214	0.000824
277.8310	0.001098
278.0407	0.000127
278.2503	0.001035
278.4600	0.000676
278.6697	0.001014
278.8794	0.000591
279.0891	-0.000929
279.2989	0.000401
279.5086	0.001563
279.7184	0.001035
279.9281	0.000084
280.1379	-0.000380
280.3477	0.000739
280.5576	0.000718
280.7674	0.000760
280.9772	0.000253
281.1871	0.000317
281.3970	0.000591
281.6069	0.000063
281.8168	0.000401
282.0267	-0.001183
282.2366	0.000739
282.4466	-0.000486
282.6565	0.000190
282.8665	0.000971
283.0765	0.000443
283.2865	-0.000992
283.4965	-0.000401
283.7065	-0.000106
283.9166	0.000739
284.1266	-0.000148
284.3367	0.000845
284.5468	0.000507
284.7569	0.001795
284.9670	-0.000591
285.1771	0.000528
285.3873	0.001183
285.5974	0.001014
285.8076	-0.000824
286.0178	-0.000275
286.2280	-0.000211
286.4382	0.002175
286.6484	-0.001246
286.8587	0.000127
287.0689	0.000296
287.2792	0.000465
287.4895	0.000211
287.6998	-0.000718
287.9101	0.000000
288.1204	-0.000760
288.3308	0.000676
288.5411	-0.000401
288.7515	-0.001478
288.9619	0.001035
289.1723	-0.000380
289.3827	-0.000211
289.5931	-0.000781
289.8035	-0.000021
290.0140	-0.001098
290.2245	0.001035
290.4349	0.001563
290.6454	0.001415
290.8559	-0.000549
291.0665	0.001098
291.2770	0.001415
291.4875	-0.000380
291.6981	0.000697
291.9087	0.000317
292.1193	0.000338
292.3299	0.001373
292.5405	0.000486
292.7511	0.000570
292.9618	0.000021
293.1724	0.001077
293.3831	0.000190
293.5938	0.000591
293.8045	-0.000422
294.0152	0.000971
294.2260	0.000824
294.4367	-0.000422
294.6475	0.001922
294.8582	0.000929
295.0690	0.000106
295.2798	0.001035
295.4906	-0.001204
295.7015	0.001626
295.9123	-0.000612
296.1232	-0.000084
296.3340	-0.001140
296.5449	-0.000655
296.7558	0.000296
296.9667	0.000148
297.1777	0.000739
297.3886	0.000971
297.5995	0.001183
297.8105	0.001183
298.0215	-0.000929
298.2325	-0.000866
298.4435	0.000570
298.6545	0.001077
298.8656	-0.000148
299.0766	0.000338
299.2877	-0.000021
299.4988	-0.000570
299.7099	-0.000338
299.9210	0.000338
300.1321	-0.001436
300.3432	0.000845
300.5544	-0.000253
300.7655	-0.000528
300.9767	-0.000591
301.1879	0.001077
301.3991	0.000401
301.6103	-0.000063
301.8215	-0.000127
302.0328	0.000401
302.2441	-0.001267
302.4553	0.000190
302.6666	0.000401
302.8779	0.000549
303.0892	-0.000127
303.3006	0.001584
303.5119	0.000971
303.7233	0.001161
303.9346	0.000000
304.1460	0.001288
304.3574	-0.000380
304.5688	0.001647
304.7803	-0.000401
304.9917	-0.001077
305.2031	0.000549
305.4146	-0.000824
305.6261	-0.000528
305.8376	0.000950
306.0491	-0.000443
306.2606	-0.000338
306.4722	0.001119
306.6837	0.000338
306.8953	-0.000338
307.1069	0.000528
307.3184	-0.000042
307.5301	-0.000359
307.7417	-0.001098
307.9533	-0.001098
308.1650	-0.000739
308.3766	0.000507
308.5883	0.000633
308.8000	0.000824
309.0117	-0.001436
309.2234	0.000612
309.4351	0.000296
309.6469	0.001457
309.8586	-0.000570
310.0704	-0.000211
310.2822	-0.000211
310.4940	0.000908
310.7058	-0.001098
310.9176	0.000232
311.1295	0.000021
311.3413	0.001035
311.5532	-0.000612
311.7651	0.000084
311.9770	0.000169
312.1889	-0.000084
312.4008	0.000718
312.6127	0.000000
312.8247	-0.000908
313.0366	0.001394
313.2486	-0.000338
313.4606	0.000232
313.6726	-0.000211
313.8846	0.001014
314.0967	-0.000929
314.3087	0.000211
314.5208	0.000507
314.7328	-0.000655
314.9449	-0.001689
315.1570	-0.000084
315.3692	-0.000950
315.5813	-0.000169
315.7934	-0.001837
316.0056	0.000253
316.2177	0.000845
316.4299	0.000063
316.6421	0.000169
316.8543	0.000549
317.0666	0.002175
317.2788	0.000465
317.4911	-0.002006
317.7033	0.001014
317.9156	-0.000486
318.1279	-0.000908
318.3402	0.000549
318.5525	0.000253
318.7649	0.000169
318.9772	0.001140
319.1896	0.000802
319.4019	0.000549
319.6143	-0.000127
319.8267	0.001035
320.0392	0.000591
320.2516	0.001436
320.4640	0.000338
320.6765	-0.000697
320.8890	-0.000570
321.1014	-0.000338
321.3139	-0.001436
321.5265	0.000655
321.7390	-0.000971
321.9515	-0.001056
322.1641	-0.000655
322.3766	0.000570
322.5892	-0.000655
322.8018	0.001077
323.0144	0.000021
323.2270	-0.000612
323.4397	-0.000401
323.6523	-0.000127
323.8650	-0.000190
324.0777	0.000760
324.2904	0.000908
324.5031	-0.000845
324.7158	-0.000507
324.9285	-0.000253
325.1412	0.000992
325.3540	0.000127
325.5668	0.000127
325.7796	0.001542
325.9924	-0.001204
326.2052	0.000781
326.4180	0.000486
326.6308	0.001330
326.8437	0.000866
327.0566	-0.000950
327.2694	0.000570
327.4823	0.000992
327.6952	-0.000380
327.9082	0.000802
328.1211	0.000443
328.3340	-0.000127
328.5470	0.000021
328.7600	0.000676
328.9730	-0.000063
329.1860	0.000084
329.3990	0.001288
329.6120	0.001330
329.8251	0.000992
330.0381	-0.000169
330.2512	-0.000422
330.4643	0.001098
330.6774	0.000802
330.8905	0.001056
331.1036	-0.000992
331.3167	-0.000401
331.5299	-0.001204
331.7431	0.000676
331.9562	0.001288
332.1694	0.000317
332.3826	0.000992
332.5959	0.001415
332.8091	-0.000697
333.0223	-0.000718
333.2356	0.000253
333.4489	0.001584
333.6622	-0.000127
333.8755	0.001373
334.0888	0.001542
334.3021	0.000781
334.5154	0.000718
334.7288	0.001499
334.9422	-0.000380
335.1555	0.001922
335.3689	0.000169
335.5823	-0.000253
335.7958	0.001056
336.0092	0.000633
336.2227	0.000211
336.4361	0.002217
336.6496	-0.000190
336.8631	-0.000106
337.0766	0.000739
337.2901	-0.000296
337.5036	0.001605
337.7172	0.001626
337.9307	-0.000612
338.1443	-0.001140
338.3579	0.000211
338.5715	0.000042
338.7851	-0.000401
338.9987	-0.000084
339.2124	-0.000845
339.4260	-0.000486
339.6397	0.000422
339.8533	0.000443
340.0670	-0.000443
340.2807	0.001563
340.4945	-0.000063
340.7082	-0.000296
340.9219	0.000401
341.1357	-0.000401
341.3495	-0.001330
341.5633	0.000000
341.7771	0.000845
341.9909	0.000000
342.2047	0.000190
342.4185	0.000253
342.6324	0.001035
342.8463	0.000655
343.0601	0.001605
343.2740	0.000528
343.4879	0.000063
343.7019	0.000232
343.9158	-0.000106
344.1297	0.000443
344.3437	-0.000676
344.5577	0.000845
344.7717	0.001183
344.9857	0.000697
345.1997	-0.000253
345.4137	-0.000232
345.6277	0.000401
345.8418	0.000021
346.0559	0.000507
346.2699	-0.000718
346.4840	-0.000317
346.6981	-0.000401
346.9123	0.000676
347.1264	0.000824
347.3406	-0.001267
347.5547	0.001373
347.7689	-0.000359
347.9831	0.001014
348.1973	-0.000211
348.4115	0.000697
348.6257	0.000317
348.8400	-0.000507
349.0542	0.000127
349.2685	0.000021
349.4828	0.001267
349.6971	-0.000401
349.9114	0.000253
350.1257	0.001330
350.3400	-0.000887
350.5544	-0.000190
350.7687	0.001161
350.9831	0.000317
351.1975	-0.000106
351.4119	0.000296
351.6263	0.000169
351.8407	0.001161
352.0552	-0.000275
352.2696	0.000824
352.4841	0.000042
352.6986	0.000211
352.9131	0.000063
353.1276	0.001520
353.3421	0.000084
353.5566	0.000000
353.7712	-0.000781
353.9858	0.001161
354.2003	0.001246
354.4149	0.000253
354.6295	-0.000232
354.8441	0.000612
355.0588	0.000275
355.2734	-0.000106
355.4881	0.000824
355.7027	0.000063
355.9174	0.000084
356.1321	0.000992
356.3468	0.000401
356.5615	-0.000106
356.7763	-0.000380
356.9910	0.001457
357.2058	0.001161
357.4206	0.001288
357.6353	-0.000591
357.8501	0.000676
358.0650	-0.000253
358.2798	0.001478
358.4946	0.000866
358.7095	0.000676
358.9243	0.000570
359.1392	0.002006
359.3541	-0.000338
359.5690	-0.000422
359.7839	-0.000275
359.9989	0.000971
360.2138	0.000697
360.4288	-0.000591
360.6438	0.000486
360.8587	0.001753
361.0737	0.000507
361.2888	-0.000106
361.5038	0.000486
361.7188	0.000190
361.9339	-0.000422
362.1489	-0.000232
362.3640	-0.000781
362.5791	0.002091
362.7942	0.001225
363.0093	0.000908
363.2245	0.000317
363.4396	0.000612
363.6548	0.001204
363.8699	0.001795
364.0851	-0.000317
364.3003	0.000211
364.5155	0.000338
364.7308	0.001098
364.9460	0.001204
365.1612	-0.000781
365.3765	0.000169
365.5918	-0.000549
365.8071	0.001288
366.0224	0.000338
366.2377	0.000253
366.4530	0.000317
366.6684	0.002217
366.8837	-0.000253
367.0991	-0.000401
367.3145	0.001478
367.5299	-0.000190
367.7453	0.000802
367.9607	0.000275
368.1761	0.000866
368.3916	-0.001415
368.6070	0.002175
368.8225	-0.000211
369.0380	0.000887
369.2535	-0.000296
369.4690	0.000718
369.6845	-0.000549
369.9001	0.000422
370.1156	-0.000084
370.3312	0.000063
370.5468	-0.000275
370.7624	0.001035
370.9780	-0.000021
371.1936	-0.000296
371.4092	-0.000232
371.6249	0.000591
371.8405	0.001605
372.0562	0.000760
372.2719	-0.000021
372.4876	0.000781
372.7033	0.000127
372.9190	0.000084
373.1348	0.001309
373.3505	0.000570
373.5663	0.000042
373.7820	0.000042
373.9978	-0.000612
374.2136	0.000887
374.4294	-0.000296
374.6453	-0.000612
374.8611	0.000106
375.0770	0.000929
375.2928	0.000000
375.5087	-0.000528
375.7246	-0.001394
375.9405	0.001183
376.1564	0.001584
376.3724	-0.000655
376.5883	0.000401
376.8043	0.000971
377.0203	0.001689
377.2362	-0.000528
377.4522	-0.000486
377.6682	0.000781
377.8843	0.000338
378.1003	0.000359
378.3164	-0.000486
378.5324	0.000845
378.7485	0.000528
378.9646	0.000633
379.1807	0.001014
379.3968	0.001288
379.6129	0.000380
379.8291	0.000549
380.0452	-0.000929
380.2614	0.000401
380.4776	0.000106
380.6938	0.001098
380.9100	0.001520
381.1262	0.000380
381.3424	0.000422
381.5587	0.000042
381.7749	0.000739
381.9912	0.000422
382.2075	-0.000317
382.4238	0.000486
382.6401	-0.001288
382.8564	0.002069
383.0728	0.001943
383.2891	0.000422
383.5055	-0.000127
383.7219	-0.000655
383.9382	-0.000845
384.1546	-0.000042
384.3711	0.001837
384.5875	0.000633
384.8039	-0.000612
385.0204	0.001204
385.2368	0.001267
385.4533	0.000275
385.6698	-0.000275
385.8863	0.003062
386.1028	-0.000169
386.3194	-0.000443
386.5359	0.000232
386.7525	0.000549
386.9690	0.000021
387.1856	0.000127
387.4022	0.000253
387.6188	0.000929
387.8355	0.000612
388.0521	0.000718
388.2687	-0.000253
388.4854	0.001246
388.7021	0.000676
388.9188	-0.000021
389.1355	0.000317
389.3522	0.001204
389.5689	0.000971
389.7856	0.000655
390.0024	0.000697
390.2192	0.000718
390.4359	0.000824
390.6527	0.000866
390.8695	0.000528
391.0863	0.000443
391.3032	0.001014
391.5200	0.001774
391.7369	0.001985
391.9537	0.002154
392.1706	0.002154
392.3875	0.001309
392.6044	0.000063
392.8213	0.002091
393.0383	0.001140
393.2552	0.000971
393.4722	0.000760
393.6891	0.000317
393.9061	0.000929
394.1231	0.000929
394.3401	0.000845
394.5572	0.000697
394.7742	0.001288
394.9912	0.002217
395.2083	0.000676
395.4254	0.002302
395.6425	0.001879
395.8596	0.003463
396.0767	0.002471
396.2938	0.002386
396.5109	0.001584
396.7281	0.002091
396.9453	0.003421
397.1624	0.002851
397.3796	0.003526
397.5968	0.003336
397.8140	0.002112
398.0313	0.003189
398.2485	0.001647
398.4658	0.002766
398.6830	0.002851
398.9003	0.003294
399.1176	0.004751
399.3349	0.005047
399.5522	0.002809
399.7696	0.004667
399.9869	0.004033
400.2043	0.003125
400.4216	0.003146
400.6390	0.002618
400.8564	0.005807
401.0738	0.004434
401.2912	0.004308
401.5087	0.005068
401.7261	0.003885
401.9436	0.005596
402.1610	0.004625
402.3785	0.004962
402.5960	0.005216
402.8135	0.005237
403.0310	0.005300
403.2486	0.005976
403.4661	0.006398
403.6837	0.005385
403.9013	0.005406
404.1189	0.006567
404.3365	0.005997
404.5541	0.007243
404.7717	0.006103
404.9893	0.007180
405.2070	0.006588
405.4246	0.005934
405.6423	0.006778
405.8600	0.008785
406.0777	0.006441
406.2954	0.006926
406.5131	0.006251
406.7309	0.006736
406.9486	0.007623
407.1664	0.005723
407.3842	0.006947
407.6020	0.006694
407.8198	0.007222
408.0376	0.007813
408.2554	0.008975
408.4733	0.007412
408.6911	0.008172
408.9090	0.009165
409.1269	0.005892
409.3448	0.007560
409.5627	0.009165
409.7806	0.007644
409.9985	0.008404
410.2165	0.008067
410.4344	0.008426
410.6524	0.007771
410.8704	0.009819
411.0884	0.008088
411.3064	0.008848
411.5244	0.010136
411.7424	0.008531
411.9605	0.008806
412.1785	0.010073
412.3966	0.010495
412.6147	0.010368
412.8328	0.010601
413.0509	0.008763
413.2690	0.010052
413.4871	0.010495
413.7053	0.009904
413.9234	0.010474
414.1416	0.011340
414.3598	0.011424
414.5780	0.008700
414.7962	0.011276
415.0144	0.010643
415.2326	0.010411
415.4509	0.009059
415.6692	0.010347
415.8874	0.012269
416.1057	0.011846
416.3240	0.010769
416.5423	0.011150
416.7606	0.011107
416.9790	0.011804
417.1973	0.011572
417.4157	0.013282
417.6341	0.011952
417.8524	0.011635
418.0708	0.012754
418.2893	0.013219
418.5077	0.013156
418.7261	0.012269
418.9446	0.013071
419.1630	0.014148
419.3815	0.011445
419.6000	0.012860
419.8185	0.012459
420.0370	0.014106
420.2555	0.013282
420.4741	0.015056
420.6926	0.015394
420.9112	0.016577
421.1298	0.015288
421.3483	0.017295
421.5669	0.016049
421.7856	0.017210
422.0042	0.016196
422.2228	0.017189
422.4415	0.016767
422.6601	0.018773
422.8788	0.016365
423.0975	0.018287
423.3162	0.017083
423.5349	0.016746
423.7536	0.016598
423.9724	0.017970
424.1911	0.015183
424.4099	0.017654
424.6287	0.016006
424.8475	0.017696
425.0663	0.015563
425.2851	0.016914
425.5039	0.017632
425.7228	0.016239
425.9416	0.014296
426.1605	0.016999
426.3793	0.016534
426.5982	0.017273
426.8171	0.017231
427.0361	0.015669
427.2550	0.016724
427.4739	0.017632
427.6929	0.017759
427.9118	0.017147
428.1308	0.015352
428.3498	0.017886
