# Wavelength (nm)	Intensity (a.u.)
197.7802	0.001003
197.9842	-0.000203
198.1882	0.000643
198.3922	-0.000774
198.5963	-0.000562
198.8003	-0.000922
199.0044	0.001235
199.2085	0.000876
199.4126	0.000241
199.6168	-0.002021
199.8209	0.001066
200.0251	-0.000901
200.2292	0.000220
200.4334	0.000495
200.6376	0.001193
200.8418	-0.000118
201.0461	0.000030
201.2503	0.000305
201.4546	0.001320
201.6589	-0.001535
201.8631	0.001933
202.0674	0.000559
202.2718	0.000432
202.4761	-0.000287
202.6805	-0.001239
202.8848	0.000918
203.0892	-0.000922
203.2936	0.001722
203.4980	-0.000330
203.7024	0.000432
203.9069	0.001193
204.1113	0.000389
204.3158	-0.000795
204.5203	0.001235
204.7248	-0.000266
204.9293	-0.001894
205.1338	0.000051
205.3384	-0.000372
205.5430	-0.000266
205.7475	0.000559
205.9521	0.001172
206.1567	0.000009
206.3614	-0.000710
206.5660	0.001151
206.7706	0.001722
206.9753	-0.001006
207.1800	-0.000372
207.3847	0.001849
207.5894	-0.002317
207.7941	0.000770
207.9989	0.000834
208.2036	-0.001598
208.4084	0.002018
208.6132	0.000474
208.8180	0.000051
209.0228	0.000157
209.2276	0.000812
209.4325	0.001130
209.6373	-0.000076
209.8422	-0.000055
210.0471	-0.000583
210.2520	-0.000012
210.4569	0.000115
210.6618	0.000411
210.8668	-0.000287
211.0718	0.000284
211.2767	0.001045
211.4817	-0.000520
211.6867	-0.000372
211.8918	-0.001281
212.0968	-0.000499
212.3018	0.001108
212.5069	0.001172
212.7120	0.001151
212.9171	0.000305
213.1222	0.002314
213.3273	0.000093
213.5325	-0.000076
213.7376	-0.001387
213.9428	-0.000837
214.1480	-0.000118
214.3532	0.000453
214.5584	0.001701
214.7636	0.000305
214.9689	-0.001175
215.1741	0.000474
215.3794	-0.000203
215.5847	0.000686
215.7900	-0.000351
215.9953	0.000030
216.2007	0.001806
216.4060	-0.000858
216.6114	0.001764
216.8168	-0.001197
217.0222	0.000432
217.2276	-0.000245
217.4330	0.000157
217.6384	0.000643
217.8439	0.001024
218.0494	0.000178
218.2548	0.000220
218.4603	-0.000414
218.6659	0.000982
218.8714	0.002864
219.0769	0.000664
219.2825	-0.000562
219.4881	0.000580
219.6936	0.000686
219.8992	0.000707
220.1049	-0.002064
220.3105	-0.000076
220.5161	0.000157
220.7218	-0.000435
220.9275	-0.000118
221.1332	0.000580
221.3389	-0.000541
221.5446	0.000220
221.7503	0.000389
221.9561	0.000305
222.1618	0.000305
222.3676	-0.000541
222.5734	-0.000266
222.7792	0.000051
222.9850	0.000960
223.1909	-0.001408
223.3967	0.000982
223.6026	0.000389
223.8085	0.000389
224.0144	0.000220
224.2203	0.000157
224.4262	0.000093
224.6322	-0.000752
224.8381	-0.000033
225.0441	-0.000604
225.2501	0.000537
225.4561	-0.001768
225.6621	0.002314
225.8681	0.000051
226.0742	0.000284
226.2802	-0.001556
226.4863	0.000093
226.6924	0.000834
226.8985	0.000643
227.1046	-0.001239
227.3107	0.000072
227.5169	-0.000372
227.7230	0.000770
227.9292	0.000601
228.1354	0.001997
228.3416	0.000136
228.5478	0.001257
228.7541	0.001383
228.9603	0.001003
229.1666	-0.000520
229.3729	-0.000372
229.5791	0.000009
229.7855	-0.000837
229.9918	0.000305
230.1981	-0.001429
230.4045	0.000580
230.6108	0.000178
230.8172	-0.000287
231.0236	-0.000752
231.2300	-0.000076
231.4364	-0.001535
231.6429	0.000643
231.8493	0.001045
232.0558	-0.002339
232.2623	-0.000414
232.4688	0.000051
232.6753	0.000664
232.8818	0.000178
233.0884	0.001214
233.2949	0.000516
233.5015	0.001764
233.7081	0.000241
233.9147	-0.000393
234.1213	0.000389
234.3279	0.000263
234.5346	0.000030
234.7413	0.000347
234.9479	-0.000351
235.1546	0.000136
235.3613	0.000643
235.5680	0.000284
235.7748	0.001066
235.9815	0.000263
236.1883	0.000728
236.3951	0.002821
236.6018	0.000284
236.8087	0.001806
237.0155	0.000495
237.2223	-0.001937
237.4292	-0.001979
237.6360	-0.000541
237.8429	0.000051
238.0498	0.000622
238.2567	0.000305
238.4636	0.002102
238.6706	0.000220
238.8775	0.002018
239.0845	0.000157
239.2915	0.001701
239.4985	-0.001408
239.7055	0.000051
239.9125	0.000411
240.1195	0.000939
240.3266	0.000093
240.5337	0.000051
240.7407	0.001383
240.9478	0.000770
241.1549	-0.002275
241.3621	0.002969
241.5692	0.000812
241.7764	-0.000330
241.9835	0.000072
242.1907	-0.000287
242.3979	-0.001873
242.6051	0.000474
242.8124	-0.000224
243.0196	0.000707
243.2269	-0.000435
243.4341	0.000855
243.6414	-0.000456
243.8487	0.001510
244.0560	-0.000816
244.2634	0.000516
244.4707	-0.000139
244.6781	-0.000308
244.8854	0.000220
245.0928	-0.001662
245.3002	-0.001577
245.5076	0.000601
245.7151	0.000178
245.9225	0.000749
246.1300	0.000516
246.3375	0.000051
246.5449	-0.001366
246.7524	0.001405
246.9600	0.000939
247.1675	-0.000985
247.3750	0.000601
247.5826	0.001637
247.7902	-0.001387
247.9978	-0.000139
248.2054	-0.001535
248.4130	0.000580
248.6206	-0.001112
248.8283	-0.000689
249.0359	0.001383
249.2436	0.000305
249.4513	-0.000372
249.6590	0.000855
249.8667	-0.000160
250.0745	0.001510
250.2822	-0.000139
250.4900	-0.001641
250.6978	-0.000414
250.9056	-0.000689
251.1134	0.000284
251.3212	0.001489
251.5290	-0.000308
251.7369	0.000157
251.9447	0.000897
252.1526	0.000432
252.3605	-0.000160
252.5684	0.000093
252.7763	-0.000224
252.9843	0.000939
253.1922	-0.000351
253.4002	0.001003
253.6082	-0.001810
253.8162	0.000728
254.0242	0.000051
254.2322	0.000178
254.4402	-0.000583
254.6483	0.000960
254.8564	-0.001197
255.0644	0.000601
255.2725	0.000009
255.4806	-0.000795
255.6888	-0.001450
255.8969	0.001087
256.1051	-0.000330
256.3132	0.000305
256.5214	0.000749
256.7296	-0.000583
256.9378	0.000305
257.1460	0.002060
257.3543	0.000030
257.5625	0.000305
257.7708	-0.000837
257.9791	-0.001027
258.1874	0.000707
258.3957	-0.000541
258.6040	-0.000689
258.8124	0.001510
259.0207	0.000263
259.2291	-0.000478
259.4375	-0.000456
259.6459	-0.002064
259.8543	0.000834
260.0627	0.000389
260.2711	-0.000372
260.4796	-0.000203
260.6881	0.000791
260.8965	-0.000731
261.1050	0.000072
261.3135	-0.000478
261.5221	0.000791
261.7306	0.001489
261.9392	0.000580
262.1477	0.000876
262.3563	0.000622
262.5649	-0.001323
262.7735	-0.000224
262.9822	0.001087
263.1908	-0.000604
263.3995	0.001257
263.6081	-0.001133
263.8168	-0.000668
264.0255	0.000305
264.2342	0.002187
264.4429	-0.000604
264.6517	0.000495
264.8604	0.001108
265.0692	-0.000118
265.2780	-0.001006
265.4868	0.000093
265.6956	-0.000837
265.9044	0.002546
266.1133	-0.000795
266.3221	-0.000055
266.5310	0.000178
266.7399	0.000474
266.9488	0.001087
267.1577	-0.000012
267.3666	0.000474
267.5755	-0.000668
267.7845	-0.000478
267.9935	0.001045
268.2024	-0.000901
268.4114	0.000263
268.6205	-0.002233
268.8295	-0.000160
269.0385	-0.001514
269.2476	0.001637
269.4566	0.000389
269.6657	0.001870
269.8748	0.000093
270.0839	0.000241
270.2931	0.000284
270.5022	-0.000837
270.7114	0.000939
270.9205	0.000559
271.1297	-0.000520
271.3389	0.000622
271.5481	-0.001070
271.7573	-0.000478
271.9666	-0.001133
272.1758	-0.000266
272.3851	-0.001450
272.5944	-0.001471
272.8037	-0.001006
273.0130	-0.001704
273.2223	0.000791
273.4316	-0.001831
273.6410	-0.001006
273.8504	0.000495
274.0597	0.000220
274.2691	0.000093
274.4785	-0.000266
274.6880	-0.000689
274.8974	-0.001175
275.1069	0.000389
275.3163	-0.001810
275.5258	-0.000160
275.7353	-0.000795
275.9448	0.000263
276.1543	-0.000795
276.3639	0.000157
276.5734	-0.000266
276.7830	-0.001366
276.9926	0.000305
277.2022	0.001320
277.4118	-0.001345
277.6214	-0.000055
277.8310	-0.001070
278.0407	0.000749
278.2503	-0.001281
278.4600	0.000537
278.6697	0.000707
278.8794	0.002293
279.0891	-0.000604
279.2989	0.001405
279.5086	-0.000668
279.7184	-0.000668
279.9281	-0.001704
280.1379	0.000580
280.3477	-0.000879
280.5576	-0.000435
280.7674	0.000537
280.9772	0.001299
281.1871	-0.001070
281.3970	-0.000245
281.6069	0.001785
281.8168	0.000432
282.0267	-0.002698
282.2366	-0.000499
282.4466	0.000897
282.6565	0.001870
282.8665	-0.000456
283.0765	0.000601
283.2865	0.000495
283.4965	0.000537
283.7065	0.000643
283.9166	-0.000626
284.1266	-0.001218
284.3367	-0.000626
284.5468	-0.000731
284.7569	0.000347
284.9670	-0.000922
285.1771	0.001679
285.3873	0.002356
285.5974	-0.000668
285.8076	0.000220
286.0178	0.000749
286.2280	-0.000668
286.4382	0.001426
286.6484	-0.000922
286.8587	0.002293
287.0689	0.000389
287.2792	0.002631
287.4895	0.000009
287.6998	0.000199
287.9101	-0.000520
288.1204	-0.000012
288.3308	-0.000774
288.5411	0.000389
288.7515	-0.001239
288.9619	0.000199
289.1723	-0.000118
289.3827	0.001320
289.5931	0.001320
289.8035	-0.000203
290.0140	0.000009
290.2245	-0.000668
290.4349	-0.001218
290.6454	0.000559
290.8559	-0.000837
291.0665	0.000559
291.2770	-0.001260
291.4875	0.001087
291.6981	-0.001006
291.9087	0.001003
292.1193	-0.000414
292.3299	0.000580
292.5405	0.000770
292.7511	0.000664
292.9618	0.000728
293.1724	0.000580
293.3831	0.000432
293.5938	0.000009
293.8045	0.000178
294.0152	0.001383
294.2260	0.000474
294.4367	0.000368
294.6475	-0.000901
294.8582	0.000622
295.0690	-0.001704
295.2798	0.000389
295.4906	-0.000033
295.7015	-0.002635
295.9123	-0.000647
296.1232	-0.000456
296.3340	-0.000774
296.5449	-0.000626
296.7558	-0.001366
296.9667	0.000855
297.1777	0.000157
297.3886	0.000030
297.5995	0.000897
297.8105	0.001257
298.0215	0.001489
298.2325	-0.000266
298.4435	-0.000203
298.6545	-0.000499
298.8656	-0.000012
299.0766	0.000368
299.2877	-0.000858
299.4988	0.000453
299.7099	0.000389
299.9210	0.001574
300.1321	0.002229
300.3432	-0.001408
300.5544	0.001722
300.7655	-0.000076
300.9767	0.000855
301.1879	-0.000076
301.3991	-0.001387
301.6103	0.000537
301.8215	0.000601
302.0328	0.002546
302.2441	-0.000731
302.4553	-0.000520
302.6666	0.000897
302.8779	-0.001345
303.0892	-0.001112
303.3006	0.000030
303.5119	-0.001006
303.7233	0.000939
303.9346	-0.000414
304.1460	-0.000182
304.3574	-0.000499
304.5688	-0.000393
304.7803	-0.000583
304.9917	0.001743
305.2031	0.000664
305.4146	0.001489
305.6261	0.000093
305.8376	-0.000033
306.0491	0.000876
306.2606	-0.001831
306.4722	-0.001239
306.6837	0.000770
306.8953	-0.001958
307.1069	-0.000224
307.3184	-0.000012
307.5301	0.000178
307.7417	-0.000901
307.9533	-0.000076
308.1650	-0.001239
308.3766	0.000982
308.5883	-0.000182
308.8000	0.000495
309.0117	0.001024
309.2234	0.000812
309.4351	-0.000266
309.6469	0.001489
309.8586	-0.000478
310.0704	0.001257
310.2822	-0.000816
310.4940	0.000537
310.7058	0.000284
310.9176	-0.001260
311.1295	0.001405
311.3413	-0.000033
311.5532	-0.000245
311.7651	0.000199
311.9770	0.000770
312.1889	0.000664
312.4008	-0.001133
312.6127	0.000516
312.8247	-0.000837
313.0366	-0.000922
313.2486	-0.000160
313.4606	-0.000816
313.6726	0.000453
313.8846	0.000982
314.0967	-0.000710
314.3087	-0.000308
314.5208	0.000474
314.7328	0.000051
314.9449	-0.001197
315.1570	-0.000626
315.3692	0.000897
315.5813	0.000664
315.7934	-0.000182
316.0056	-0.000330
316.2177	-0.001514
316.4299	0.001405
316.6421	-0.000245
316.8543	0.001870
317.0666	-0.000308
317.2788	0.000812
317.4911	-0.002127
317.7033	0.000093
317.9156	0.000876
318.1279	0.000411
318.3402	-0.000795
318.5525	-0.001408
318.7649	-0.001471
318.9772	-0.000520
319.1896	0.000347
319.4019	0.000686
319.6143	0.001870
319.8267	0.000791
320.0392	-0.001768
320.2516	-0.000562
320.4640	-0.000562
320.6765	-0.000456
320.8890	0.000093
321.1014	-0.000118
321.3139	-0.000879
321.5265	0.002631
321.7390	0.000389
321.9515	0.002335
322.1641	0.000495
322.3766	-0.000435
322.5892	-0.000287
322.8018	0.001299
323.0144	0.001003
323.2270	-0.000414
323.4397	-0.000266
323.6523	-0.000520
323.8650	0.000939
324.0777	-0.001197
324.2904	-0.000964
324.5031	0.000136
324.7158	0.000305
324.9285	0.000474
325.1412	-0.000033
325.3540	-0.000478
325.5668	-0.002592
325.7796	0.001341
325.9924	-0.000499
326.2052	-0.000816
326.4180	-0.001789
326.6308	0.000516
326.8437	-0.002106
327.0566	-0.000752
327.2694	0.001278
327.4823	0.000241
327.6952	0.001510
327.9082	-0.000541
328.1211	0.000115
328.3340	0.000686
328.5470	-0.000562
328.7600	0.000812
328.9730	-0.000689
329.1860	0.000939
329.3990	-0.000203
329.6120	-0.001197
329.8251	-0.000668
330.0381	-0.000160
330.2512	-0.000203
330.4643	0.001045
330.6774	0.000939
330.8905	-0.000816
331.1036	0.000115
331.3167	0.000326
331.5299	-0.001471
331.7431	0.000030
331.9562	-0.000033
332.1694	-0.000985
332.3826	0.000432
332.5959	0.000093
332.8091	0.001003
333.0223	0.000347
333.2356	-0.000287
333.4489	-0.001027
333.6622	0.000453
333.8755	-0.000456
334.0888	-0.000541
334.3021	0.000389
334.5154	-0.000837
334.7288	0.000960
334.9422	0.000347
335.1555	-0.000583
335.3689	0.000707
335.5823	-0.000985
335.7958	-0.000076
336.0092	0.000030
336.2227	-0.000795
336.4361	-0.000752
336.6496	-0.001218
336.8631	0.001299
337.0766	-0.000901
337.2901	-0.000266
337.5036	-0.000901
337.7172	0.000812
337.9307	-0.000033
338.1443	-0.001112
338.3579	-0.000097
338.5715	0.001362
338.7851	-0.000795
338.9987	-0.000541
339.2124	-0.001789
339.4260	-0.000118
339.6397	0.000263
339.8533	0.000453
340.0670	0.000580
340.2807	-0.000456
340.4945	-0.000626
340.7082	0.000263
340.9219	-0.001620
341.1357	0.000982
341.3495	-0.001768
341.5633	-0.000626
341.7771	-0.000139
341.9909	0.001870
342.2047	-0.000922
342.4185	-0.000033
342.6324	-0.000414
342.8463	-0.000182
343.0601	0.000516
343.2740	0.001954
343.4879	0.002039
343.7019	-0.000752
343.9158	0.000009
344.1297	0.000453
344.3437	-0.000287
344.5577	0.000791
344.7717	-0.000943
344.9857	0.002208
345.1997	-0.000139
345.4137	0.000432
345.6277	-0.000626
345.8418	-0.000372
346.0559	0.000643
346.2699	-0.000774
346.4840	0.000347
346.6981	-0.001091
346.9123	-0.000879
347.1264	-0.000012
347.3406	-0.000393
347.5547	0.001574
347.7689	-0.000435
347.9831	0.000876
348.1973	0.001172
348.4115	0.000918
348.6257	-0.001281
348.8400	0.000115
349.0542	-0.000795
349.2685	-0.001471
349.4828	0.000009
349.6971	0.000918
349.9114	-0.001514
350.1257	0.001024
350.3400	0.001764
350.5544	0.001891
350.7687	-0.000626
350.9831	-0.000245
351.1975	0.000453
351.4119	-0.000266
351.6263	-0.000076
351.8407	-0.000478
352.0552	0.000072
352.2696	-0.000774
352.4841	-0.000456
352.6986	-0.000055
352.9131	0.001574
353.1276	0.001066
353.3421	0.000009
353.5566	0.000030
353.7712	-0.000626
353.9858	0.002039
354.2003	0.001658
354.4149	-0.000837
354.6295	0.000939
354.8441	0.000982
355.0588	0.000474
355.2734	-0.000182
355.4881	0.000136
355.7027	0.001764
355.9174	0.000622
356.1321	-0.000478
356.3468	-0.000266
356.5615	0.001362
356.7763	0.000284
356.9910	0.000284
357.2058	0.000093
357.4206	-0.000097
357.6353	-0.001302
357.8501	0.001024
358.0650	0.000389
358.2798	0.000220
358.4946	-0.000203
358.7095	-0.000351
358.9243	-0.000118
359.1392	0.000199
359.3541	-0.000985
359.5690	-0.001006
359.7839	-0.000055
359.9989	0.000495
360.2138	0.000072
360.4288	-0.000795
360.6438	-0.001006
360.8587	0.000749
361.0737	-0.000456
361.2888	0.001151
361.5038	0.001849
361.7188	0.001447
361.9339	0.000749
362.1489	0.000664
362.3640	-0.000456
362.5791	0.001172
362.7942	-0.000224
363.0093	0.001066
363.2245	-0.000118
363.4396	0.000537
363.6548	0.000072
363.8699	0.001257
364.0851	0.000770
364.3003	0.001003
364.5155	0.000284
364.7308	0.001045
364.9460	0.000093
365.1612	-0.000795
365.3765	0.001405
365.5918	-0.000816
365.8071	-0.000372
366.0224	0.001447
366.2377	-0.001260
366.4530	0.000009
366.6684	-0.000097
366.8837	-0.000689
367.0991	0.000791
367.3145	0.000834
367.5299	-0.000033
367.7453	-0.001429
367.9607	-0.001049
368.1761	0.000812
368.3916	0.000009
368.6070	0.001595
368.8225	0.000093
369.0380	-0.000499
369.2535	0.000051
369.4690	-0.000456
369.6845	-0.000901
369.9001	0.001933
370.1156	-0.000583
370.3312	-0.000245
370.5468	-0.000478
370.7624	-0.001175
370.9780	0.000622
371.1936	0.001130
371.4092	-0.001302
371.6249	0.000622
371.8405	0.000749
372.0562	-0.001493
372.2719	-0.001175
372.4876	-0.000182
372.7033	-0.000626
372.9190	0.000939
373.1348	0.000622
373.3505	0.001235
373.5663	-0.000330
373.7820	-0.000055
373.9978	-0.001598
374.2136	-0.000351
374.4294	-0.001514
374.6453	0.000220
374.8611	-0.002127
375.0770	0.000960
375.2928	-0.000985
375.5087	0.000009
375.7246	0.000284
375.9405	-0.002508
376.1564	0.001489
376.3724	0.000432
376.5883	-0.000287
376.8043	-0.000943
377.0203	-0.000795
377.2362	0.000453
377.4522	0.000749
377.6682	0.000072
377.8843	0.001108
378.1003	-0.000668
378.3164	-0.000647
378.5324	-0.000118
378.7485	0.000897
378.9646	0.000432
379.1807	-0.000837
379.3968	-0.001450
379.6129	0.000241
379.8291	-0.000393
380.0452	-0.000837
380.2614	0.000115
380.4776	-0.002042
380.6938	0.000982
380.9100	0.001637
381.1262	-0.000731
381.3424	0.001151
381.5587	0.001405
381.7749	0.001003
381.9912	0.000728
382.2075	0.001130
382.4238	0.000982
382.6401	-0.000182
382.8564	0.000537
383.0728	0.000199
383.2891	0.000834
383.5055	-0.000689
383.7219	0.001320
383.9382	-0.000752
384.1546	0.000897
384.3711	-0.000689
384.5875	0.000453
384.8039	-0.000033
385.0204	0.001108
385.2368	-0.000224
385.4533	-0.000139
385.6698	-0.000795
385.8863	0.000241
386.1028	-0.001641
386.3194	0.001870
386.5359	0.000918
386.7525	-0.000816
386.9690	-0.000182
387.1856	0.000495
387.4022	-0.000160
387.6188	0.002229
387.8355	-0.000562
388.0521	-0.000626
388.2687	-0.000752
388.4854	0.000516
388.7021	-0.000182
388.9188	-0.000203
389.1355	0.001785
389.3522	-0.000287
389.5689	-0.001302
389.7856	-0.000203
390.0024	-0.000626
390.2192	-0.001091
390.4359	-0.001218
390.6527	-0.000076
390.8695	-0.000118
391.0863	-0.001091
391.3032	-0.000287
391.5200	-0.000710
391.7369	-0.000541
391.9537	0.000453
392.1706	-0.000774
392.3875	0.000030
392.6044	-0.000330
392.8213	0.001045
393.0383	0.000326
393.2552	0.001278
393.4722	-0.000012
393.6891	0.000791
393.9061	-0.000901
394.1231	-0.001133
394.3401	-0.000308
394.5572	-0.000033
394.7742	0.000368
394.9912	0.000368
395.2083	-0.001683
395.4254	-0.000456
395.6425	-0.000604
395.8596	-0.000266
396.0767	-0.000922
396.2938	0.000834
396.5109	0.000897
396.7281	-0.001514
396.9453	-0.000182
397.1624	0.000284
397.3796	-0.002296
397.5968	0.000664
397.8140	0.000263
398.0313	0.000389
398.2485	-0.001387
398.4658	0.000389
398.6830	0.000537
398.9003	-0.000858
399.1176	-0.000351
399.3349	0.001066
399.5522	-0.001175
399.7696	-0.000372
399.9869	0.000432
400.2043	0.000707
400.4216	-0.000541
400.6390	0.001933
400.8564	0.000220
401.0738	-0.000456
401.2912	-0.000372
401.5087	0.002081
401.7261	0.001003
401.9436	0.001193
402.1610	-0.001345
402.3785	-0.000414
402.5960	0.000411
402.8135	-0.001387
403.0310	-0.000478
403.2486	-0.001197
403.4661	-0.001641
403.6837	-0.001175
403.9013	0.000009
404.1189	0.001257
404.3365	-0.000033
404.5541	-0.000160
404.7717	-0.001218
404.9893	-0.000626
405.2070	-0.001239
405.4246	0.000516
405.6423	-0.000562
405.8600	-0.001197
406.0777	0.000326
406.2954	0.000178
406.5131	-0.001471
406.7309	0.000136
406.9486	-0.001091
407.1664	0.000897
407.3842	-0.000541
407.6020	0.000432
407.8198	-0.001197
408.0376	-0.000012
408.2554	-0.000816
408.4733	-0.001006
408.6911	0.000622
408.9090	0.001574
409.1269	0.000115
409.3448	0.000707
409.5627	-0.001514
409.7806	0.000432
409.9985	-0.001239
410.2165	0.000136
410.4344	-0.000055
410.6524	-0.000393
410.8704	-0.000943
411.0884	0.001510
411.3064	-0.000372
411.5244	-0.000435
411.7424	-0.000456
411.9605	0.000178
412.1785	-0.001873
412.3966	-0.001260
412.6147	0.000072
412.8328	0.001658
413.0509	0.000812
413.2690	0.000368
413.4871	-0.000752
413.7053	-0.001154
413.9234	0.000326
414.1416	0.000263
414.3598	-0.000456
414.5780	0.000474
414.7962	0.000093
415.0144	-0.000139
415.2326	0.000284
415.4509	0.001362
415.6692	-0.000626
415.8874	-0.001577
416.1057	-0.000076
416.3240	0.000051
416.5423	0.000432
416.7606	-0.000985
416.9790	-0.000372
417.1973	0.000157
417.4157	0.001024
417.6341	-0.000435
417.8524	0.000072
418.0708	0.000643
418.2893	0.001108
418.5077	-0.000012
418.7261	0.000812
418.9446	0.000601
419.1630	-0.002296
419.3815	-0.000520
419.6000	-0.001006
419.8185	-0.000435
420.0370	-0.001450
420.2555	-0.000266
420.4741	-0.000499
420.6926	0.000326
420.9112	0.000897
421.1298	0.000516
421.3483	-0.001323
421.5669	0.002124
421.7856	-0.000689
422.0042	-0.000964
422.2228	-0.002021
422.4415	-0.000393
422.6601	0.001341
422.8788	0.000537
423.0975	-0.000266
423.3162	-0.000456
423.5349	-0.001197
423.7536	-0.000287
423.9724	-0.000710
424.1911	-0.001197
424.4099	-0.001366
424.6287	0.001108
424.8475	-0.001091
425.0663	-0.000668
425.2851	-0.000182
425.5039	0.001151
425.7228	0.007262
425.9416	0.001743
426.1605	0.001235
