# Wavelength (nm)	Intensity (a.u.)
197.7802	-0.000436
197.9842	-0.000225
198.1882	-0.000922
198.3922	-0.001745
198.5963	0.001126
198.8003	-0.000478
199.0044	0.001548
199.2085	0.000619
199.4126	0.000873
199.6168	0.000746
199.8209	-0.000225
200.0251	0.000514
200.2292	-0.000141
200.4334	-0.000795
200.6376	0.000873
200.8418	-0.001555
201.0461	0.000704
201.2503	-0.002294
201.4546	0.000471
201.6589	-0.000436
201.8631	-0.000352
202.0674	-0.001027
202.2718	0.000070
202.4761	0.000007
202.6805	0.000197
202.8848	-0.000563
203.0892	0.000788
203.2936	-0.000352
203.4980	0.001274
203.7024	0.000113
203.9069	-0.000331
204.1113	-0.000690
204.3158	0.001105
204.5203	-0.000436
204.7248	-0.000246
204.9293	-0.001006
205.1338	0.001421
205.3384	0.000070
205.5430	-0.000225
205.7475	0.000556
205.9521	0.000830
206.1567	-0.000204
206.3614	0.000704
206.5660	-0.000690
206.7706	-0.000310
206.9753	0.000683
207.1800	0.000978
207.3847	-0.001260
207.5894	0.000788
207.7941	-0.000690
207.9989	0.000260
208.2036	0.000176
208.4084	0.001442
208.6132	0.000661
208.8180	-0.000204
209.0228	0.000598
209.2276	0.000640
209.4325	0.000830
209.6373	-0.000141
209.8422	0.000556
210.0471	0.000999
210.2520	0.000324
210.4569	0.000197
210.6618	-0.000858
210.8668	0.000640
211.0718	0.000070
211.2767	0.001147
211.4817	0.000704
211.6867	0.000471
211.8918	-0.001365
212.0968	-0.000436
212.3018	-0.000077
212.5069	0.000746
212.7120	0.000091
212.9171	0.000345
213.1222	0.000598
213.3273	-0.000563
213.5325	-0.000035
213.7376	0.000049
213.9428	0.000070
214.1480	0.000155
214.3532	0.000429
214.5584	-0.000605
214.7636	0.000134
214.9689	0.000091
215.1741	-0.000605
215.3794	0.000640
215.5847	-0.000858
215.7900	-0.000985
215.9953	0.001168
216.2007	-0.000985
216.4060	0.000113
216.6114	0.001147
216.8168	-0.000457
217.0222	0.000197
217.2276	0.000661
217.4330	0.001358
217.6384	0.000408
217.8439	0.001717
218.0494	-0.000267
218.2548	-0.000204
218.4603	0.000471
218.6659	0.000155
218.8714	0.000007
219.0769	-0.000584
219.2825	0.000345
219.4881	-0.000816
219.6936	0.000957
219.8992	0.000450
220.1049	-0.000246
220.3105	0.000155
220.5161	0.000619
220.7218	0.000303
220.9275	0.000767
221.1332	0.001316
221.3389	-0.000500
221.5446	0.000239
221.7503	-0.000099
221.9561	0.000556
222.1618	0.000239
222.3676	-0.000690
222.5734	-0.000563
222.7792	-0.000774
222.9850	0.000661
223.1909	0.001252
223.3967	-0.000964
223.6026	0.000281
223.8085	0.000598
224.0144	-0.000141
224.2203	-0.000500
224.4262	0.000303
224.6322	0.000260
224.8381	0.001147
225.0441	-0.000288
225.2501	0.000113
225.4561	-0.000711
225.6621	0.000598
225.8681	-0.000542
226.0742	0.000260
226.2802	-0.000943
226.4863	-0.000563
226.6924	-0.001112
226.8985	0.001442
227.1046	-0.001428
227.3107	0.001907
227.5169	-0.000352
227.7230	0.001084
227.9292	0.000155
228.1354	-0.001027
228.3416	-0.000120
228.5478	0.001295
228.7541	-0.001027
228.9603	0.001949
229.1666	-0.001006
229.3729	-0.000985
229.5791	0.000113
229.7855	0.000683
229.9918	-0.001513
230.1981	0.000345
230.4045	-0.000204
230.6108	0.000915
230.8172	0.000598
231.0236	-0.000035
231.2300	0.000134
231.4364	0.000134
231.6429	-0.000837
231.8493	0.000218
232.0558	-0.001428
232.2623	0.000788
232.4688	0.000007
232.6753	0.001442
232.8818	-0.000436
233.0884	0.000218
233.2949	-0.000711
233.5015	0.000514
233.7081	0.000577
233.9147	0.000134
234.1213	-0.000436
234.3279	0.000809
234.5346	0.000176
234.7413	0.000134
234.9479	0.000429
235.1546	0.001421
235.3613	-0.000901
235.5680	0.000556
235.7748	0.000091
235.9815	0.001400
236.1883	0.000049
236.3951	-0.000225
236.6018	0.000091
236.8087	-0.000120
237.0155	0.000113
237.2223	0.000493
237.4292	-0.000711
237.6360	0.000155
237.8429	0.000176
238.0498	0.000788
238.2567	-0.000035
238.4636	0.001442
238.6706	0.000556
238.8775	-0.000436
239.0845	0.000577
239.2915	0.000134
239.4985	-0.000436
239.7055	-0.001112
239.9125	-0.000478
240.1195	0.000514
240.3266	-0.000753
240.5337	0.000915
240.7407	-0.000690
240.9478	-0.000732
241.1549	-0.000732
241.3621	0.000598
241.5692	-0.000267
241.7764	0.001084
241.9835	-0.001006
242.1907	0.000873
242.3979	-0.001006
242.6051	0.000070
242.8124	-0.001260
243.0196	-0.000141
243.2269	0.000493
243.4341	-0.000626
243.6414	-0.001027
243.8487	-0.000457
244.0560	0.000303
244.2634	0.000683
244.4707	-0.000162
244.6781	0.001274
244.8854	-0.000478
245.0928	0.000345
245.3002	0.001506
245.5076	0.001316
245.7151	0.000915
245.9225	0.000366
246.1300	0.001147
246.3375	-0.000183
246.5449	-0.001027
246.7524	-0.000415
246.9600	-0.000690
247.1675	0.000324
247.3750	0.000345
247.5826	-0.001238
247.7902	0.000007
247.9978	0.000429
248.2054	-0.001070
248.4130	0.000324
248.6206	0.000408
248.8283	0.001231
249.0359	-0.000964
249.2436	-0.000373
249.4513	0.001632
249.6590	0.001400
249.8667	-0.000352
250.0745	0.001020
250.2822	0.000281
250.4900	0.000218
250.6978	-0.000183
250.9056	-0.000310
251.1134	-0.000014
251.3212	0.001189
251.5290	0.000725
251.7369	-0.000120
251.9447	-0.000035
252.1526	0.000535
252.3605	-0.000246
252.5684	-0.000521
252.7763	0.000239
252.9843	0.000936
253.1922	-0.000056
253.4002	-0.000056
253.6082	0.000091
253.8162	0.000894
254.0242	0.000197
254.2322	-0.000373
254.4402	0.000535
254.6483	-0.000647
254.8564	-0.000647
255.0644	0.001041
255.2725	-0.000310
255.4806	-0.000246
255.6888	0.000746
255.8969	0.000809
256.1051	-0.000352
256.3132	-0.000056
256.5214	-0.000162
256.7296	0.000134
256.9378	-0.000690
257.1460	0.000788
257.3543	0.001231
257.5625	-0.000035
257.7708	-0.000415
257.9791	0.000598
258.1874	0.000239
258.3957	0.000197
258.6040	0.000619
258.8124	-0.000647
259.0207	0.000535
259.2291	-0.000204
259.4375	0.000007
259.6459	0.001063
259.8543	0.000091
260.0627	-0.000711
260.2711	-0.001196
260.4796	0.000577
260.6881	-0.001070
260.8965	-0.000225
261.1050	-0.000521
261.3135	0.000028
261.5221	0.000049
261.7306	-0.000816
261.9392	-0.001048
262.1477	-0.000099
262.3563	-0.000753
262.5649	-0.000795
262.7735	-0.000077
262.9822	0.000746
263.1908	0.000134
263.3995	0.001231
263.6081	0.000683
263.8168	0.000450
264.0255	0.000493
264.2342	0.000746
264.4429	0.000915
264.6517	-0.000225
264.8604	-0.002209
265.0692	-0.001513
265.2780	0.000915
265.4868	-0.000099
265.6956	0.000598
265.9044	0.000007
266.1133	-0.000183
266.3221	-0.000563
266.5310	0.000408
266.7399	-0.001175
266.9488	0.000746
267.1577	0.001126
267.3666	0.000598
267.5755	0.001379
267.7845	-0.000542
267.9935	0.001252
268.2024	0.000619
268.4114	0.000577
268.6205	-0.000204
268.8295	0.000387
269.0385	0.000239
269.2476	0.000408
269.4566	0.000134
269.6657	-0.000183
269.8748	-0.000246
270.0839	0.000704
270.2931	-0.000478
270.5022	0.000303
270.7114	0.000683
270.9205	0.000661
271.1297	-0.001048
271.3389	0.001210
271.5481	-0.000373
271.7573	0.001337
271.9666	0.000070
272.1758	0.000049
272.3851	-0.000077
272.5944	0.000915
272.8037	0.000049
273.0130	0.001084
273.2223	-0.000690
273.4316	0.000471
273.6410	-0.000563
273.8504	-0.000099
274.0597	0.000429
274.2691	0.000239
274.4785	0.000049
274.6880	-0.000711
274.8974	0.000957
275.1069	0.001063
275.3163	0.000007
275.5258	-0.000478
275.7353	-0.000162
275.9448	0.000683
276.1543	0.001337
276.3639	0.001252
276.5734	0.000324
276.7830	0.000873
276.9926	0.000070
277.2022	0.001084
277.4118	0.000239
277.6214	0.000239
277.8310	-0.000310
278.0407	0.001231
278.2503	0.000535
278.4600	-0.000563
278.6697	-0.000521
278.8794	-0.000331
279.0891	-0.000985
279.2989	0.001147
279.5086	0.000598
279.7184	-0.000436
279.9281	-0.000077
280.1379	0.000070
280.3477	0.000366
280.5576	0.000704
280.7674	-0.000901
280.9772	-0.001112
281.1871	-0.000753
281.3970	-0.000415
281.6069	-0.000373
281.8168	0.000514
282.0267	-0.000436
282.2366	-0.000795
282.4466	0.000239
282.6565	0.000345
282.8665	-0.000626
283.0765	0.000873
283.2865	-0.000584
283.4965	0.000577
283.7065	-0.000035
283.9166	-0.000690
284.1266	-0.000267
284.3367	-0.000985
284.5468	-0.000352
284.7569	0.000894
284.9670	-0.001260
285.1771	0.000387
285.3873	0.000619
285.5974	0.000429
285.8076	-0.000901
286.0178	0.001506
286.2280	-0.001386
286.4382	-0.000753
286.6484	0.000197
286.8587	0.001379
287.0689	0.000197
287.2792	0.000830
287.4895	-0.000521
287.6998	0.000830
287.9101	0.000514
288.1204	-0.000267
288.3308	-0.000373
288.5411	0.000704
288.7515	-0.000225
288.9619	-0.000035
289.1723	-0.001618
289.3827	0.001400
289.5931	-0.000014
289.8035	0.001126
290.0140	0.000303
290.2245	0.001084
290.4349	0.000387
290.6454	0.000598
290.8559	-0.000352
291.0665	-0.001175
291.2770	-0.001006
291.4875	0.000281
291.6981	0.000661
291.9087	-0.001323
292.1193	0.000936
292.3299	0.000324
292.5405	-0.000056
292.7511	-0.001471
292.9618	-0.000352
293.1724	0.000324
293.3831	0.001210
293.5938	0.001611
293.8045	0.000704
294.0152	-0.000415
294.2260	0.000788
294.4367	-0.000901
294.6475	-0.000478
294.8582	0.001717
295.0690	-0.000077
295.2798	0.000746
295.4906	0.000260
295.7015	-0.000500
295.9123	-0.000415
296.1232	-0.000331
296.3340	-0.000141
296.5449	0.002097
296.7558	-0.000500
296.9667	-0.000077
297.1777	-0.001154
297.3886	0.000408
297.5995	0.000619
297.8105	0.000007
298.0215	-0.001745
298.2325	0.000577
298.4435	0.000091
298.6545	-0.000943
298.8656	-0.001344
299.0766	0.000851
299.2877	-0.001407
299.4988	0.000598
299.7099	0.000830
299.9210	0.001084
300.1321	0.000704
300.3432	0.000113
300.5544	0.000070
300.7655	0.000640
300.9767	-0.000415
301.1879	-0.000035
301.3991	-0.001407
301.6103	0.001231
301.8215	-0.001471
302.0328	0.000324
302.2441	-0.000077
302.4553	0.000324
302.6666	-0.000436
302.8779	-0.000795
303.0892	0.000028
303.3006	-0.000478
303.5119	-0.000753
303.7233	0.000661
303.9346	0.000725
304.1460	0.000661
304.3574	-0.001027
304.5688	0.000535
304.7803	0.000788
304.9917	0.000197
305.2031	0.000830
305.4146	-0.000077
305.6261	0.000091
305.8376	-0.000626
306.0491	0.000683
306.2606	-0.000373
306.4722	0.000303
306.6837	0.000894
306.8953	0.000176
307.1069	-0.000457
307.3184	0.000281
307.5301	-0.001281
307.7417	-0.000753
307.9533	-0.000690
308.1650	-0.000225
308.3766	0.001041
308.5883	0.000176
308.8000	0.001231
309.0117	0.000366
309.2234	0.000830
309.4351	-0.000521
309.6469	-0.000288
309.8586	-0.000225
310.0704	-0.000077
310.2822	-0.000120
310.4940	0.000450
310.7058	0.000176
310.9176	-0.000436
311.1295	-0.000246
311.3413	-0.000310
311.5532	0.001168
311.7651	0.000746
311.9770	-0.001238
312.1889	0.001168
312.4008	-0.000500
312.6127	0.000661
312.8247	-0.000985
313.0366	0.000661
313.2486	-0.000035
313.4606	0.000091
313.6726	0.000155
313.8846	-0.000310
314.0967	0.000830
314.3087	0.000978
314.5208	-0.000141
314.7328	0.000007
314.9449	-0.001555
315.1570	0.000197
315.3692	-0.000457
315.5813	0.000999
315.7934	0.000176
316.0056	0.000830
316.2177	0.000197
316.4299	0.000197
316.6421	-0.000225
316.8543	0.002329
317.0666	-0.000626
317.2788	0.000281
317.4911	-0.000542
317.7033	0.000640
317.9156	0.000936
318.1279	0.001654
318.3402	-0.000858
318.5525	0.001400
318.7649	-0.000985
318.9772	-0.000964
319.1896	-0.000035
319.4019	-0.001006
319.6143	-0.000943
319.8267	0.000535
320.0392	0.000091
320.2516	-0.001154
320.4640	0.000303
320.6765	-0.000415
320.8890	-0.000415
321.1014	0.000936
321.3139	0.000070
321.5265	-0.000500
321.7390	-0.001238
321.9515	0.000091
322.1641	-0.000985
322.3766	-0.000943
322.5892	0.000936
322.8018	0.001675
323.0144	-0.001829
323.2270	-0.000204
323.4397	0.000408
323.6523	-0.000542
323.8650	-0.000542
324.0777	0.000345
324.2904	-0.001618
324.5031	0.000767
324.7158	-0.000246
324.9285	0.000324
325.1412	-0.000922
325.3540	-0.000394
325.5668	0.000535
325.7796	0.000661
325.9924	0.000176
326.2052	0.000366
326.4180	-0.000225
326.6308	0.000535
326.8437	0.000366
327.0566	0.000577
327.2694	-0.000099
327.4823	0.001759
327.6952	-0.000542
327.9082	-0.001133
328.1211	-0.000035
328.3340	0.000493
328.5470	-0.000690
328.7600	-0.001133
328.9730	-0.000542
329.1860	-0.000288
329.3990	-0.000858
329.6120	0.001168
329.8251	0.000197
330.0381	-0.000837
330.2512	0.000281
330.4643	0.000197
330.6774	-0.000077
330.8905	-0.000288
331.1036	0.000070
331.3167	0.000324
331.5299	-0.000563
331.7431	-0.000035
331.9562	-0.000352
332.1694	-0.000099
332.3826	0.000999
332.5959	0.000239
332.8091	-0.000542
333.0223	-0.000288
333.2356	-0.000542
333.4489	-0.000288
333.6622	-0.000584
333.8755	0.001379
334.0888	-0.000267
334.3021	0.000028
334.5154	0.000577
334.7288	0.000239
334.9422	-0.000647
335.1555	-0.001006
335.3689	-0.001133
335.5823	0.002709
335.7958	-0.000436
336.0092	0.000049
336.2227	-0.001091
336.4361	-0.000436
336.6496	0.000408
336.8631	0.000577
337.0766	-0.000964
337.2901	-0.000542
337.5036	-0.000478
337.7172	-0.000120
337.9307	0.000007
338.1443	0.001717
338.3579	-0.000858
338.5715	0.001189
338.7851	-0.000774
338.9987	-0.000394
339.2124	-0.000099
339.4260	-0.000352
339.6397	0.000978
339.8533	-0.000647
340.0670	0.000281
340.2807	0.001063
340.4945	-0.000099
340.7082	-0.000267
340.9219	0.000239
341.1357	-0.000858
341.3495	0.000661
341.5633	-0.000500
341.7771	0.001168
341.9909	-0.000478
342.2047	-0.000626
342.4185	0.001020
342.6324	-0.000099
342.8463	0.001041
343.0601	0.000514
343.2740	0.000746
343.4879	0.000957
343.7019	0.000345
343.9158	-0.000774
344.1297	0.001358
344.3437	0.000281
344.5577	-0.000183
344.7717	0.000936
344.9857	0.000514
345.1997	-0.000795
345.4137	-0.000077
345.6277	-0.001154
345.8418	0.000894
346.0559	-0.000183
346.2699	-0.000964
346.4840	0.000091
346.6981	-0.000626
346.9123	-0.001133
347.1264	0.000091
347.3406	-0.000288
347.5547	-0.000183
347.7689	-0.000014
347.9831	-0.000141
348.1973	0.000577
348.4115	0.001274
348.6257	0.000514
348.8400	0.000704
349.0542	-0.000162
349.2685	0.000197
349.4828	0.000155
349.6971	0.000619
349.9114	-0.000753
350.1257	0.000408
350.3400	-0.000183
350.5544	0.000556
350.7687	-0.000436
350.9831	0.000091
351.1975	0.000239
351.4119	-0.001217
351.6263	-0.000352
351.8407	0.000577
352.0552	0.000788
352.2696	0.000260
352.4841	0.000746
352.6986	0.000767
352.9131	-0.000795
353.1276	0.000176
353.3421	0.000028
353.5566	-0.000985
353.7712	0.000746
353.9858	0.000535
354.2003	0.000239
354.4149	-0.001006
354.6295	0.000809
354.8441	0.000303
355.0588	-0.001471
355.2734	-0.000288
355.4881	0.000281
355.7027	-0.000225
355.9174	-0.000605
356.1321	0.001274
356.3468	0.000155
356.5615	0.000957
356.7763	0.000239
356.9910	0.000556
357.2058	0.000661
357.4206	-0.000014
357.6353	-0.000774
357.8501	-0.000352
358.0650	-0.000120
358.2798	0.000873
358.4946	0.001084
358.7095	0.001485
358.9243	0.000366
359.1392	-0.000837
359.3541	-0.000267
359.5690	0.000683
359.7839	-0.000500
359.9989	-0.000816
360.2138	0.000239
360.4288	-0.000077
360.6438	-0.000901
360.8587	-0.000077
361.0737	-0.000099
361.2888	-0.000795
361.5038	-0.000542
361.7188	0.000619
361.9339	-0.000056
362.1489	-0.001112
362.3640	0.000113
362.5791	0.000535
362.7942	0.000619
363.0093	0.000767
363.2245	0.001274
363.4396	0.000155
363.6548	0.000661
363.8699	0.000957
364.0851	-0.000584
364.3003	0.000303
364.5155	0.000155
364.7308	0.001063
364.9460	0.000767
365.1612	0.001970
365.3765	0.000408
365.5918	-0.000647
365.8071	-0.001281
366.0224	0.000915
366.2377	-0.000457
366.4530	-0.000668
366.6684	0.000556
366.8837	0.000830
367.0991	0.000070
367.3145	0.000007
367.5299	0.000281
367.7453	-0.000099
367.9607	0.000767
368.1761	0.000197
368.3916	-0.000373
368.6070	0.000028
368.8225	-0.000288
369.0380	-0.000246
369.2535	0.000113
369.4690	0.000936
369.6845	0.000197
369.9001	-0.000099
370.1156	-0.000310
370.3312	0.000091
370.5468	-0.001935
370.7624	0.001063
370.9780	0.000007
371.1936	0.001274
371.4092	0.000429
371.6249	0.001527
371.8405	-0.000647
372.0562	-0.000162
372.2719	0.001675
372.4876	0.000661
372.7033	-0.000985
372.9190	0.000514
373.1348	0.000197
373.3505	0.001041
373.5663	-0.000415
373.7820	0.000851
373.9978	-0.000584
374.2136	0.000746
374.4294	-0.000943
374.6453	0.000113
374.8611	0.000999
375.0770	0.000408
375.2928	0.000155
375.5087	0.000661
375.7246	-0.000056
375.9405	-0.000267
376.1564	-0.000542
376.3724	0.000957
376.5883	0.000345
376.8043	0.001358
377.0203	0.000936
377.2362	0.000070
377.4522	0.000704
377.6682	0.000493
377.8843	0.000873
378.1003	0.000577
378.3164	0.000493
378.5324	0.000535
378.7485	0.000514
378.9646	0.001464
379.1807	-0.000690
379.3968	0.001717
379.6129	-0.001513
379.8291	0.000408
380.0452	0.001041
380.2614	-0.000394
380.4776	-0.000352
380.6938	0.000281
380.9100	0.001063
381.1262	0.000704
381.3424	-0.000816
381.5587	0.000746
381.7749	-0.000394
381.9912	-0.000225
382.2075	-0.000647
382.4238	0.000408
382.6401	0.000197
382.8564	0.001063
383.0728	0.000809
383.2891	0.000514
383.5055	-0.000964
383.7219	-0.000077
383.9382	-0.000922
384.1546	0.000429
384.3711	0.000091
384.5875	-0.000035
384.8039	0.002055
385.0204	0.000936
385.2368	0.001548
385.4533	0.000429
385.6698	-0.001281
385.8863	0.000598
386.1028	0.001105
386.3194	0.000535
386.5359	0.002540
386.7525	0.000493
386.9690	0.001274
387.1856	0.000535
387.4022	0.000113
387.6188	0.001675
387.8355	0.001337
388.0521	0.002139
388.2687	0.001274
388.4854	0.001632
388.7021	0.001611
388.9188	0.003279
389.1355	0.001611
389.3522	0.003765
389.5689	0.000387
389.7856	0.003680
390.0024	0.002055
390.2192	0.002350
390.4359	0.003701
390.6527	0.003680
390.8695	0.005453
391.0863	0.003406
391.3032	0.003532
391.5200	0.005622
391.7369	0.004419
391.9537	0.005538
392.1706	0.006445
392.3875	0.006994
392.6044	0.006277
392.8213	0.005559
393.0383	0.008282
393.2552	0.007775
393.4722	0.007860
393.6891	0.006488
393.9061	0.009738
394.1231	0.009147
394.3401	0.008219
394.5572	0.008810
394.7742	0.009316
394.9912	0.008092
395.2083	0.011849
395.4254	0.010330
395.6425	0.011237
395.8596	0.011322
396.0767	0.012419
396.2938	0.010752
396.5109	0.011279
396.7281	0.012609
396.9453	0.015354
397.1624	0.012187
397.3796	0.012166
397.5968	0.014488
397.8140	0.014509
398.0313	0.016346
398.2485	0.015902
398.4658	0.016325
398.6830	0.018520
398.9003	0.018372
399.1176	0.017443
399.3349	0.018182
399.5522	0.019153
399.7696	0.019702
399.9869	0.019343
400.2043	0.018773
400.4216	0.018182
400.6390	0.019449
400.8564	0.019364
401.0738	0.018562
401.2912	0.021095
401.5087	0.019660
401.7261	0.022277
401.9436	0.021602
402.1610	0.018837
402.3785	0.023481
402.5960	0.020040
402.8135	0.020694
403.0310	0.021222
403.2486	0.022362
403.4661	0.020736
403.6837	0.020905
403.9013	0.021919
404.1189	0.022151
404.3365	0.023882
404.5541	0.024599
404.7717	0.024008
404.9893	0.025148
405.2070	0.025697
405.4246	0.027259
405.6423	0.026035
405.8600	0.026520
406.0777	0.023797
406.2954	0.024494
406.5131	0.023544
406.7309	0.026035
406.9486	0.023248
407.1664	0.024832
407.3842	0.024811
407.6020	0.023565
407.8198	0.023797
408.0376	0.025866
408.2554	0.028040
408.4733	0.027618
408.6911	0.028378
408.9090	0.027470
409.1269	0.025908
409.3448	0.030257
409.5627	0.027069
409.7806	0.026162
409.9985	0.027808
410.2165	0.027154
410.4344	0.024388
410.6524	0.024747
410.8704	0.028441
411.0884	0.026584
411.3064	0.026309
411.5244	0.027090
411.7424	0.026753
411.9605	0.028927
412.1785	0.028104
412.3966	0.028779
412.6147	0.027808
412.8328	0.030257
413.0509	0.028885
413.2690	0.028505
413.4871	0.027998
413.7053	0.030996
413.9234	0.029940
414.1416	0.028589
414.3598	0.028990
414.5780	0.028357
414.7962	0.026520
415.0144	0.030573
415.2326	0.030531
415.4509	0.027428
415.6692	0.027850
415.8874	0.029560
416.1057	0.028589
416.3240	0.028842
416.5423	0.027660
416.7606	0.030151
416.9790	0.031502
417.1973	0.028378
417.4157	0.030257
417.6341	0.028399
417.8524	0.028040
418.0708	0.029645
418.2893	0.028885
418.5077	0.029961
418.7261	0.028357
418.9446	0.030362
419.1630	0.030468
419.3815	0.030510
419.6000	0.032009
419.8185	0.029307
420.0370	0.031502
420.2555	0.030320
420.4741	0.033465
420.6926	0.034289
420.9112	0.033043
421.1298	0.033170
421.3483	0.035154
421.5669	0.034901
421.7856	0.036020
422.0042	0.036716
422.2228	0.035893
422.4415	0.036210
422.6601	0.036188
422.8788	0.035112
423.0975	0.036378
423.3162	0.034901
423.5349	0.034310
423.7536	0.034141
423.9724	0.032853
424.1911	0.034479
424.4099	0.033951
424.6287	0.032262
424.8475	0.032980
425.0663	0.033698
425.2851	0.031397
425.5039	0.032178
425.7228	0.031566
425.9416	0.029835
426.1605	0.028906
426.3793	0.030742
426.5982	0.031946
426.8171	0.030299
427.0361	0.030067
427.2550	0.031734
427.4739	0.030974
427.6929	0.031988
