# Wavelength (nm)	Intensity (a.u.)
197.7802	0.000427
197.9842	-0.000314
198.1882	0.000342
198.3922	0.000384
198.5963	-0.000208
198.8003	0.000130
199.0044	0.002373
199.2085	0.000046
199.4126	0.000427
199.6168	-0.000420
199.8209	0.000596
200.0251	-0.000250
200.2292	-0.001244
200.4334	-0.000462
200.6376	0.000384
200.8418	-0.001118
201.0461	-0.000229
201.2503	-0.001181
201.4546	0.001421
201.6589	0.000765
201.8631	0.001907
202.0674	-0.000504
202.2718	0.001484
202.4761	-0.000610
202.6805	0.002119
202.8848	-0.000779
203.0892	0.000765
203.2936	0.001167
203.4980	-0.001900
203.7024	0.000575
203.9069	0.001823
204.1113	0.000448
204.3158	-0.000187
204.5203	-0.000398
204.7248	-0.000356
204.9293	-0.001181
205.1338	0.002013
205.3384	-0.000652
205.5430	-0.000314
205.7475	-0.000187
205.9521	0.000088
206.1567	0.000278
206.3614	0.000278
206.5660	0.000257
206.7706	0.002161
206.9753	0.000363
207.1800	0.000130
207.3847	-0.000039
207.5894	0.000321
207.7941	0.000955
207.9989	0.000490
208.2036	-0.000250
208.4084	0.000427
208.6132	0.000765
208.8180	0.001548
209.0228	0.000405
209.2276	0.000363
209.4325	0.000384
209.6373	0.000596
209.8422	-0.000864
210.0471	0.000004
210.2520	-0.000250
210.4569	0.000046
210.6618	-0.000589
210.8668	-0.000145
211.0718	-0.001414
211.2767	0.002922
211.4817	0.000152
211.6867	-0.000441
211.8918	-0.000060
212.0968	0.002288
212.3018	0.000934
212.5069	0.001801
212.7120	0.000427
212.9171	-0.000991
213.1222	-0.000843
213.3273	0.001484
213.5325	0.001590
213.7376	-0.000462
213.9428	-0.001244
214.1480	-0.001308
214.3532	0.000088
214.5584	0.001378
214.7636	-0.000123
214.9689	-0.000927
215.1741	-0.000673
215.3794	0.000215
215.5847	-0.000293
215.7900	-0.001308
215.9953	-0.000589
216.2007	0.000511
216.4060	-0.000060
216.6114	0.000828
216.8168	0.000765
217.0222	-0.001816
217.2276	-0.000568
217.4330	0.000659
217.6384	0.000702
217.8439	0.001463
218.0494	0.000300
218.2548	0.002944
218.4603	0.000109
218.6659	0.001696
218.8714	0.000871
219.0769	0.000130
219.2825	-0.000843
219.4881	0.000532
219.6936	-0.000991
219.8992	0.001103
220.1049	-0.000694
220.3105	0.000469
220.5161	-0.000420
220.7218	-0.000166
220.9275	-0.000356
221.1332	0.000955
221.3389	-0.000208
221.5446	-0.000441
221.7503	-0.001244
221.9561	0.001548
222.1618	-0.000208
222.3676	0.000088
222.5734	-0.000081
222.7792	0.000702
222.9850	0.000977
223.1909	-0.000462
223.3967	0.000807
223.6026	0.002224
223.8085	0.000680
224.0144	0.000067
224.2203	0.000194
224.4262	-0.000948
224.6322	-0.001435
224.8381	-0.002069
225.0441	-0.000546
225.2501	0.000215
225.4561	0.000342
225.6621	0.001357
225.8681	-0.002260
226.0742	-0.000377
226.2802	-0.001414
226.4863	0.000448
226.6924	0.000300
226.8985	0.001125
227.1046	-0.002006
227.3107	-0.000314
227.5169	-0.000081
227.7230	0.000025
227.9292	-0.000145
228.1354	0.000807
228.3416	-0.000187
228.5478	0.001611
228.7541	0.000278
228.9603	0.001082
229.1666	-0.000652
229.3729	-0.001054
229.5791	-0.000652
229.7855	-0.001350
229.9918	0.000278
230.1981	-0.000398
230.4045	0.000257
230.6108	0.000046
230.8172	0.000955
231.0236	0.000384
231.2300	-0.001477
231.4364	-0.001414
231.6429	0.000152
231.8493	0.001125
232.0558	-0.001139
232.2623	-0.000271
232.4688	0.000575
232.6753	-0.000123
232.8818	0.000278
233.0884	0.001696
233.2949	-0.000335
233.5015	0.000152
233.7081	0.000532
233.9147	0.000173
234.1213	-0.000166
234.3279	-0.000293
234.5346	-0.000504
234.7413	0.002351
234.9479	-0.000652
235.1546	0.000553
235.3613	0.002288
235.5680	0.000723
235.7748	0.000765
235.9815	-0.000187
236.1883	0.000215
236.3951	0.001886
236.6018	0.000680
236.8087	0.002224
237.0155	-0.000123
237.2223	-0.001942
237.4292	0.000088
237.6360	0.001992
237.8429	0.000046
238.0498	0.001378
238.2567	0.000490
238.4636	-0.000250
238.6706	-0.001414
238.8775	0.001188
239.0845	-0.000927
239.2915	0.002076
239.4985	-0.000462
239.7055	0.001315
239.9125	-0.000229
240.1195	0.000088
240.3266	0.000321
240.5337	0.000257
240.7407	0.000004
240.9478	-0.000843
241.1549	-0.002048
241.3621	0.001526
241.5692	-0.000123
241.7764	0.000448
241.9835	-0.000737
242.1907	0.001357
242.3979	-0.000716
242.6051	0.000807
242.8124	0.000680
243.0196	-0.000568
243.2269	-0.000187
243.4341	0.000363
243.6414	-0.001392
243.8487	0.001167
244.0560	-0.000546
244.2634	0.001865
244.4707	-0.001012
244.6781	0.000553
244.8854	-0.002387
245.0928	0.000384
245.3002	-0.001181
245.5076	0.000723
245.7151	-0.000673
245.9225	-0.000504
246.1300	0.000638
246.3375	-0.000927
246.5449	-0.001202
246.7524	0.000363
246.9600	0.000130
247.1675	0.000596
247.3750	-0.000694
247.5826	0.001442
247.7902	-0.001160
247.9978	0.000617
248.2054	-0.000314
248.4130	-0.000039
248.6206	0.000638
248.8283	-0.000969
249.0359	0.001251
249.2436	0.000617
249.4513	-0.001139
249.6590	0.000553
249.8667	0.000977
250.0745	0.000913
250.2822	0.000194
250.4900	-0.002281
250.6978	-0.001498
250.9056	-0.000123
251.1134	0.000363
251.3212	0.002901
251.5290	0.000173
251.7369	0.001209
251.9447	-0.000864
252.1526	-0.000314
252.3605	0.001357
252.5684	0.000004
252.7763	0.000723
252.9843	0.001886
253.1922	0.000511
253.4002	0.000850
253.6082	-0.000546
253.8162	-0.000293
254.0242	-0.000187
254.2322	0.001611
254.4402	-0.001244
254.6483	0.000807
254.8564	-0.000314
255.0644	0.000913
255.2725	-0.000229
255.4806	-0.000208
255.6888	0.000532
255.8969	0.003409
256.1051	-0.000356
256.3132	-0.000398
256.5214	0.001463
256.7296	0.000067
256.9378	0.000194
257.1460	0.001484
257.3543	-0.001350
257.5625	0.000532
257.7708	-0.000039
257.9791	-0.001773
258.1874	-0.000589
258.3957	0.000786
258.6040	-0.000166
258.8124	0.001611
259.0207	0.000977
259.2291	-0.000123
259.4375	-0.000737
259.6459	0.000152
259.8543	-0.001096
260.0627	0.000448
260.2711	-0.000631
260.4796	0.001421
260.6881	0.000786
260.8965	-0.000589
261.1050	0.000955
261.3135	0.000342
261.5221	-0.000229
261.7306	0.000490
261.9392	0.000342
262.1477	-0.000102
262.3563	0.000871
262.5649	-0.000589
262.7735	0.000342
262.9822	0.000257
263.1908	-0.000589
263.3995	0.001928
263.6081	-0.002471
263.8168	-0.000694
264.0255	0.000892
264.2342	-0.000420
264.4429	0.000025
264.6517	0.001738
264.8604	0.000765
265.0692	-0.000504
265.2780	-0.001435
265.4868	-0.000377
265.6956	-0.000800
265.9044	0.002732
266.1133	-0.002027
266.3221	0.001484
266.5310	-0.001392
266.7399	0.000130
266.9488	0.000977
267.1577	-0.000123
267.3666	-0.001731
267.5755	0.000511
267.7845	0.000215
267.9935	0.000257
268.2024	0.001019
268.4114	-0.001096
268.6205	-0.000060
268.8295	-0.001075
269.0385	0.000321
269.2476	0.001061
269.4566	0.000659
269.6657	0.001336
269.8748	-0.001012
270.0839	0.001569
270.2931	-0.000377
270.5022	0.000067
270.7114	0.000744
270.9205	0.000088
271.1297	-0.001837
271.3389	0.000405
271.5481	0.000025
271.7573	0.001294
271.9666	-0.001710
272.1758	-0.000039
272.3851	0.000553
272.5944	-0.001160
272.8037	-0.000314
273.0130	-0.000504
273.2223	0.000828
273.4316	-0.000546
273.6410	-0.000991
273.8504	0.000638
274.0597	0.000046
274.2691	-0.000187
274.4785	-0.000969
274.6880	-0.000589
274.8974	0.000004
275.1069	0.001230
275.3163	-0.000187
275.5258	0.001400
275.7353	-0.000546
275.9448	0.001188
276.1543	0.000955
276.3639	0.000046
276.5734	0.000278
276.7830	0.000532
276.9926	-0.000018
277.2022	0.000786
277.4118	-0.000314
277.6214	-0.002154
277.8310	-0.000758
278.0407	0.001146
278.2503	0.000723
278.4600	-0.000504
278.6697	0.000427
278.8794	0.001040
279.0891	0.000130
279.2989	-0.000969
279.5086	-0.001498
279.7184	0.000152
279.9281	0.001188
280.1379	0.001400
280.3477	-0.000864
280.5576	-0.000377
280.7674	-0.000187
280.9772	0.000257
281.1871	-0.000885
281.3970	-0.000356
281.6069	0.001125
281.8168	0.000511
282.0267	0.000257
282.2366	-0.001012
282.4466	0.000680
282.6565	-0.000377
282.8665	0.000300
283.0765	0.001019
283.2865	0.001209
283.4965	-0.000948
283.7065	-0.000271
283.9166	-0.000525
284.1266	-0.001075
284.3367	-0.000525
284.5468	-0.000356
284.7569	-0.000483
284.9670	0.000025
285.1771	0.002140
285.3873	0.000553
285.5974	0.000469
285.8076	0.001653
286.0178	0.000257
286.2280	0.000257
286.4382	0.001949
286.6484	0.000955
286.8587	0.001992
287.0689	0.000342
287.2792	0.001146
287.4895	-0.000504
287.6998	0.000659
287.9101	0.000046
288.1204	0.001801
288.3308	-0.001435
288.5411	0.001294
288.7515	0.001442
288.9619	-0.000779
289.1723	0.000363
289.3827	-0.000166
289.5931	0.000130
289.8035	-0.001054
290.0140	-0.000800
290.2245	0.001886
290.4349	0.000025
290.6454	0.000025
290.8559	-0.001096
291.0665	0.001801
291.2770	-0.000166
291.4875	0.000194
291.6981	0.000977
291.9087	-0.000758
292.1193	-0.000991
292.3299	-0.000800
292.5405	-0.000843
292.7511	-0.000483
292.9618	0.000553
293.1724	-0.000187
293.3831	0.000088
293.5938	-0.000208
293.8045	0.000004
294.0152	-0.000716
294.2260	-0.001160
294.4367	-0.001667
294.6475	-0.001964
294.8582	-0.000398
295.0690	-0.000610
295.2798	-0.000039
295.4906	0.000596
295.7015	0.000300
295.9123	0.000215
296.1232	0.000617
296.3340	0.001357
296.5449	0.000215
296.7558	0.000004
296.9667	-0.000694
297.1777	-0.001646
297.3886	-0.000145
297.5995	-0.000123
297.8105	0.002161
298.0215	0.001442
298.2325	-0.000673
298.4435	0.000765
298.6545	0.000807
298.8656	-0.001435
299.0766	-0.000081
299.2877	-0.001223
299.4988	-0.000927
299.7099	-0.000737
299.9210	0.000723
300.1321	0.002563
300.3432	0.000871
300.5544	0.000659
300.7655	0.001103
300.9767	0.000659
301.1879	-0.000335
301.3991	-0.000821
301.6103	-0.000652
301.8215	-0.000652
302.0328	0.001442
302.2441	-0.000018
302.4553	0.000955
302.6666	0.000786
302.8779	0.000046
303.0892	-0.000314
303.3006	0.000511
303.5119	0.000025
303.7233	0.001125
303.9346	0.001061
304.1460	-0.000335
304.3574	-0.000208
304.5688	0.000617
304.7803	-0.000864
304.9917	0.000998
305.2031	-0.001583
305.4146	-0.000123
305.6261	0.001315
305.8376	0.000807
306.0491	0.000257
306.2606	0.000977
306.4722	0.000130
306.6837	0.000807
306.8953	-0.000145
307.1069	0.000532
307.3184	-0.001350
307.5301	0.000553
307.7417	-0.000610
307.9533	-0.000145
308.1650	-0.000969
308.3766	0.001357
308.5883	-0.000060
308.8000	0.001209
309.0117	0.001019
309.2234	0.000025
309.4351	-0.000991
309.6469	0.001442
309.8586	-0.001689
310.0704	0.000152
310.2822	-0.000166
310.4940	0.002076
310.7058	-0.000314
310.9176	-0.000398
311.1295	-0.000039
311.3413	-0.000123
311.5532	-0.001118
311.7651	0.000744
311.9770	-0.000356
312.1889	0.001146
312.4008	-0.000589
312.6127	-0.001118
312.8247	0.000025
313.0366	0.000448
313.2486	-0.000568
313.4606	0.001780
313.6726	0.000427
313.8846	-0.002281
314.0967	0.000363
314.3087	0.000025
314.5208	0.001061
314.7328	0.001273
314.9449	-0.002196
315.1570	-0.000250
315.3692	0.001569
315.5813	-0.000377
315.7934	0.001442
316.0056	-0.000800
316.2177	-0.000546
316.4299	0.000934
316.6421	-0.000652
316.8543	0.000702
317.0666	-0.000377
317.2788	0.000004
317.4911	-0.000589
317.7033	-0.001414
317.9156	0.000384
318.1279	-0.000652
318.3402	-0.000483
318.5525	-0.000991
318.7649	-0.001816
318.9772	-0.000187
319.1896	0.000173
319.4019	-0.000039
319.6143	-0.000779
319.8267	-0.000166
320.0392	-0.000060
320.2516	-0.000250
320.4640	0.000173
320.6765	-0.001202
320.8890	-0.001456
321.1014	-0.001773
321.3139	-0.000589
321.5265	0.001801
321.7390	0.000638
321.9515	0.000257
322.1641	-0.000948
322.3766	0.001082
322.5892	0.000871
322.8018	-0.001244
323.0144	-0.000102
323.2270	-0.000166
323.4397	-0.001350
323.6523	-0.000568
323.8650	0.001209
324.0777	0.000109
324.2904	0.001188
324.5031	0.000152
324.7158	-0.000102
324.9285	0.000638
325.1412	0.000977
325.3540	0.000786
325.5668	-0.000250
325.7796	0.001125
325.9924	-0.000821
326.2052	0.000152
326.4180	-0.000546
326.6308	0.001082
326.8437	-0.002365
327.0566	-0.001456
327.2694	-0.000398
327.4823	-0.000948
327.6952	-0.000589
327.9082	0.000109
328.1211	-0.000906
328.3340	-0.001477
328.5470	0.002330
328.7600	-0.000271
328.9730	-0.001202
329.1860	-0.000906
329.3990	-0.000462
329.6120	0.001082
329.8251	-0.000441
330.0381	0.001844
330.2512	-0.000589
330.4643	0.000850
330.6774	-0.000081
330.8905	-0.000081
331.1036	-0.000123
331.3167	0.000998
331.5299	0.000913
331.7431	-0.001837
331.9562	-0.000991
332.1694	0.001442
332.3826	-0.001392
332.5959	0.000321
332.8091	0.000405
333.0223	0.000363
333.2356	-0.000229
333.4489	-0.000377
333.6622	-0.000610
333.8755	0.000236
334.0888	0.000215
334.3021	0.000786
334.5154	0.001378
334.7288	0.000955
334.9422	0.000025
335.1555	-0.000991
335.3689	0.000046
335.5823	0.000448
335.7958	-0.000737
336.0092	-0.000335
336.2227	-0.000610
336.4361	-0.000927
336.6496	-0.000145
336.8631	0.000723
337.0766	-0.000673
337.2901	0.001082
337.5036	0.000702
337.7172	0.001378
337.9307	-0.000589
338.1443	0.000025
338.3579	-0.000229
338.5715	0.001463
338.7851	-0.000779
338.9987	0.000025
339.2124	-0.000229
339.4260	-0.000758
339.6397	-0.000441
339.8533	-0.000631
340.0670	-0.000716
340.2807	0.000680
340.4945	0.000278
340.7082	0.000004
340.9219	0.000004
341.1357	0.000067
341.3495	-0.001223
341.5633	0.000807
341.7771	0.000469
341.9909	0.001886
342.2047	-0.000864
342.4185	0.000765
342.6324	-0.000018
342.8463	0.000173
343.0601	0.001040
343.2740	0.001357
343.4879	0.001167
343.7019	0.000300
343.9158	0.000342
344.1297	0.000363
344.3437	-0.001181
344.5577	0.000278
344.7717	-0.000293
344.9857	0.001992
345.1997	-0.000293
345.4137	0.002034
345.6277	0.000363
345.8418	0.000321
346.0559	0.000723
346.2699	-0.000102
346.4840	-0.001012
346.6981	-0.000843
346.9123	-0.000314
347.1264	0.000617
347.3406	-0.000991
347.5547	0.001569
347.7689	0.000490
347.9831	0.000702
348.1973	-0.000102
348.4115	-0.000441
348.6257	-0.001689
348.8400	0.000257
349.0542	-0.000420
349.2685	0.000490
349.4828	0.001526
349.6971	0.000342
349.9114	-0.000504
350.1257	0.001273
350.3400	0.002119
350.5544	0.001590
350.7687	-0.000758
350.9831	0.000617
351.1975	0.002309
351.4119	0.001146
351.6263	0.000088
351.8407	0.000553
352.0552	0.000342
352.2696	0.000723
352.4841	0.000342
352.6986	-0.001202
352.9131	0.000130
353.1276	-0.000271
353.3421	-0.001244
353.5566	0.000300
353.7712	-0.000250
353.9858	0.000596
354.2003	0.001378
354.4149	-0.000377
354.6295	-0.000229
354.8441	0.000744
355.0588	0.000130
355.2734	0.001357
355.4881	0.001569
355.7027	0.001590
355.9174	0.000427
356.1321	-0.001033
356.3468	0.000257
356.5615	0.001251
356.7763	0.000088
356.9910	0.000427
357.2058	-0.001435
357.4206	0.000977
357.6353	-0.001054
357.8501	0.001548
358.0650	-0.000208
358.2798	0.000913
358.4946	0.000977
358.7095	-0.000039
358.9243	0.000596
359.1392	0.000321
359.3541	-0.001350
359.5690	-0.000525
359.7839	-0.000208
359.9989	0.000173
360.2138	-0.000229
360.4288	0.000278
360.6438	-0.000060
360.8587	0.000257
361.0737	-0.000885
361.2888	0.000680
361.5038	0.001611
361.7188	-0.000018
361.9339	-0.000123
362.1489	-0.000123
362.3640	0.001061
362.5791	0.001971
362.7942	-0.000927
363.0093	-0.000843
363.2245	0.000617
363.4396	-0.001033
363.6548	-0.000229
363.8699	0.000532
364.0851	-0.000589
364.3003	0.001611
364.5155	-0.000589
364.7308	0.000828
364.9460	-0.000208
365.1612	-0.000969
365.3765	-0.000208
365.5918	-0.000441
365.8071	-0.000102
366.0224	0.001061
366.2377	-0.000229
366.4530	-0.000631
366.6684	0.001548
366.8837	-0.000018
367.0991	0.000596
367.3145	0.001061
367.5299	-0.000589
367.7453	-0.001181
367.9607	-0.000525
368.1761	-0.000102
368.3916	0.000596
368.6070	0.001103
368.8225	-0.000462
369.0380	-0.000673
369.2535	0.000427
369.4690	-0.000398
369.6845	0.000427
369.9001	0.001611
370.1156	-0.000758
370.3312	0.000744
370.5468	-0.001414
370.7624	-0.000800
370.9780	-0.000568
371.1936	0.000553
371.4092	0.000998
371.6249	0.000405
371.8405	-0.000525
372.0562	-0.000377
372.2719	-0.000864
372.4876	0.001251
372.7033	-0.000060
372.9190	0.001759
373.1348	-0.000779
373.3505	0.000659
373.5663	-0.001160
373.7820	0.000871
373.9978	-0.001435
374.2136	0.000702
374.4294	-0.001012
374.6453	-0.000420
374.8611	-0.000208
375.0770	0.001442
375.2928	-0.000610
375.5087	-0.000293
375.7246	0.000004
375.9405	-0.000800
376.1564	0.001949
376.3724	0.000871
376.5883	-0.002302
376.8043	-0.001773
377.0203	0.000363
377.2362	-0.002598
377.4522	0.001632
377.6682	-0.001308
377.8843	0.001759
378.1003	0.000448
378.3164	-0.000335
378.5324	0.000109
378.7485	0.000850
378.9646	0.000617
379.1807	0.000617
379.3968	0.000786
379.6129	-0.000145
379.8291	0.000004
380.0452	-0.000420
380.2614	0.001717
380.4776	-0.000525
380.6938	0.000913
380.9100	0.000130
381.1262	-0.000420
381.3424	0.001061
381.5587	0.000194
381.7749	0.000342
381.9912	0.000278
382.2075	0.000130
382.4238	0.000278
382.6401	-0.001139
382.8564	-0.000885
383.0728	-0.000737
383.2891	-0.000589
383.5055	-0.000145
383.7219	-0.000716
383.9382	-0.001033
384.1546	0.000278
384.3711	-0.000293
384.5875	-0.000843
384.8039	0.000955
385.0204	-0.000694
385.2368	-0.000123
385.4533	0.001971
385.6698	0.000427
385.8863	0.000892
386.1028	-0.001837
386.3194	-0.000018
386.5359	-0.001160
386.7525	-0.000885
386.9690	-0.001054
387.1856	-0.000694
387.4022	-0.001921
387.6188	-0.000271
387.8355	-0.000271
388.0521	-0.000631
388.2687	0.001188
388.4854	-0.000673
388.7021	0.000215
388.9188	-0.000229
389.1355	0.000723
389.3522	-0.000377
389.5689	-0.002112
389.7856	-0.000060
390.0024	-0.000335
390.2192	0.000004
390.4359	-0.001012
390.6527	0.000130
390.8695	0.001823
391.0863	0.000342
391.3032	-0.001731
391.5200	-0.001139
391.7369	0.000934
391.9537	0.001251
392.1706	-0.000271
392.3875	-0.001096
392.6044	-0.002217
392.8213	0.000702
393.0383	-0.001646
393.2552	0.001019
393.4722	0.000490
393.6891	0.001230
393.9061	-0.000800
394.1231	0.000765
394.3401	-0.001435
394.5572	-0.001667
394.7742	0.001294
394.9912	-0.000420
395.2083	-0.001414
395.4254	-0.001075
395.6425	-0.000927
395.8596	0.000109
396.0767	0.000300
396.2938	-0.001371
396.5109	-0.000483
396.7281	0.000680
396.9453	-0.001646
397.1624	0.000977
397.3796	-0.000187
397.5968	0.000723
397.8140	-0.001139
398.0313	-0.001118
398.2485	0.000511
398.4658	0.000553
398.6830	-0.001223
398.9003	0.001188
399.1176	0.000448
399.3349	0.000659
399.5522	0.000194
399.7696	0.000257
399.9869	-0.000081
400.2043	-0.000187
400.4216	-0.002471
400.6390	0.001146
400.8564	-0.000356
401.0738	-0.001075
401.2912	-0.001752
401.5087	-0.000694
401.7261	-0.000039
401.9436	0.002034
402.1610	-0.002006
402.3785	0.000871
402.5960	-0.000271
402.8135	-0.000250
403.0310	-0.001921
403.2486	-0.000991
403.4661	-0.001033
403.6837	-0.000039
403.9013	0.000977
404.1189	0.000807
404.3365	-0.000335
404.5541	-0.001308
404.7717	-0.001202
404.9893	-0.001181
405.2070	-0.000420
405.4246	-0.000335
405.6423	0.000427
405.8600	0.000278
406.0777	-0.001858
406.2954	0.000511
406.5131	-0.000568
406.7309	-0.000250
406.9486	-0.000652
407.1664	-0.001054
407.3842	0.001188
407.6020	-0.001223
407.8198	0.000469
408.0376	-0.000039
408.2554	0.000850
408.4733	-0.000483
408.6911	-0.000208
408.9090	-0.000483
409.1269	0.001273
409.3448	0.000236
409.5627	0.000004
409.7806	-0.001414
409.9985	0.001717
410.2165	-0.000546
410.4344	0.000553
410.6524	-0.000462
410.8704	0.001230
411.0884	-0.001181
411.3064	0.000173
411.5244	-0.000864
411.7424	-0.000377
411.9605	-0.000864
412.1785	0.001167
412.3966	0.000257
412.6147	0.000532
412.8328	0.000765
413.0509	-0.000589
413.2690	0.000532
413.4871	-0.000610
413.7053	-0.001096
413.9234	0.000278
414.1416	0.000871
414.3598	-0.000462
414.5780	0.000257
414.7962	-0.000631
415.0144	-0.000948
415.2326	0.001865
415.4509	-0.000525
415.6692	0.000004
415.8874	-0.000102
416.1057	0.000363
416.3240	0.000532
416.5423	-0.000335
416.7606	-0.000229
416.9790	0.000532
417.1973	0.000469
417.4157	-0.000525
417.6341	0.000786
417.8524	0.000088
418.0708	-0.000504
418.2893	0.000300
418.5077	0.001357
418.7261	0.000342
418.9446	-0.000462
419.1630	0.000405
419.3815	0.001294
419.6000	-0.000293
419.8185	-0.001054
420.0370	0.000807
420.2555	-0.000250
420.4741	0.002436
420.6926	0.000384
420.9112	0.001188
421.1298	0.000025
421.3483	0.000236
421.5669	-0.001794
421.7856	-0.000885
422.0042	-0.000483
422.2228	-0.000694
422.4415	0.000194
422.6601	-0.000927
422.8788	-0.000991
423.0975	-0.000123
423.3162	-0.000250
423.5349	-0.000673
423.7536	0.000511
423.9724	-0.000843
424.1911	-0.000145
424.4099	0.002055
424.6287	0.000511
424.8475	0.000342
425.0663	-0.001266
425.2851	-0.001604
425.5039	0.006645
425.7228	0.001886
425.9416	0.000511
426.1605	0.001061
