# Wavelength (nm)	Intensity (a.u.)
197.7802	0.000828
197.9842	-0.000758
198.1882	0.000004
198.3922	-0.000144
198.5963	-0.000229
198.8003	-0.000715
199.0044	0.000892
199.2085	0.001991
199.4126	0.000744
199.6168	-0.000229
199.8209	0.001674
200.0251	-0.001794
200.2292	0.000236
200.4334	-0.000525
200.6376	0.000807
200.8418	-0.000377
201.0461	0.000109
201.2503	0.000469
201.4546	0.000997
201.6589	0.000109
201.8631	0.002773
202.0674	0.000828
202.2718	0.000870
202.4761	0.000701
202.6805	-0.000123
202.8848	-0.000123
203.0892	0.000574
203.2936	-0.000081
203.4980	-0.001371
203.7024	0.000405
203.9069	0.000004
204.1113	-0.000842
204.3158	0.000638
204.5203	-0.000398
204.7248	0.001272
204.9293	-0.000462
205.1338	0.000913
205.3384	-0.001582
205.5430	0.000490
205.7475	0.000109
205.9521	-0.000229
206.1567	0.000617
206.3614	-0.000102
206.5660	0.001653
206.7706	0.000025
206.9753	0.001272
207.1800	0.000490
207.3847	0.002224
207.5894	0.000088
207.7941	0.000807
207.9989	-0.000208
208.2036	-0.000123
208.4084	0.000997
208.6132	-0.000018
208.8180	-0.000271
209.0228	-0.001223
209.2276	-0.000377
209.4325	0.000955
209.6373	0.000173
209.8422	-0.001857
210.0471	0.000786
210.2520	-0.000927
210.4569	0.001103
210.6618	-0.001033
210.8668	-0.000419
211.0718	0.000300
211.2767	0.001272
211.4817	0.001230
211.6867	0.000426
211.8918	0.001145
212.0968	0.001124
212.3018	0.000278
212.5069	0.000469
212.7120	0.001399
212.9171	0.000046
213.1222	0.000596
213.3273	0.001293
213.5325	0.001462
213.7376	-0.000462
213.9428	-0.000736
214.1480	0.001061
214.3532	-0.001603
214.5584	0.001547
214.7636	-0.000271
214.9689	-0.000927
215.1741	-0.000483
215.3794	0.001336
215.5847	0.000574
215.7900	-0.000948
215.9953	-0.000060
216.2007	0.001103
216.4060	-0.001836
216.6114	0.000215
216.8168	-0.000504
217.0222	0.000553
217.2276	-0.000462
217.4330	0.000680
217.6384	0.002287
217.8439	0.000934
218.0494	-0.000842
218.2548	0.000680
218.4603	0.000278
218.6659	0.001124
218.8714	0.000194
219.0769	0.000511
219.2825	-0.000504
219.4881	-0.000208
219.6936	0.000405
219.8992	0.001610
220.1049	0.000617
220.3105	-0.001667
220.5161	0.000236
220.7218	0.000574
220.9275	0.000870
221.1332	-0.000039
221.3389	-0.000166
221.5446	0.000997
221.7503	0.000173
221.9561	0.000321
222.1618	-0.001371
222.3676	0.001293
222.5734	0.000257
222.7792	-0.000229
222.9850	0.000913
223.1909	0.000236
223.3967	0.000574
223.6026	0.000152
223.8085	0.001018
224.0144	0.001526
224.2203	0.001780
224.4262	0.000870
224.6322	0.000426
224.8381	-0.001117
225.0441	-0.000314
225.2501	0.001145
225.4561	-0.000462
225.6621	-0.000419
225.8681	-0.001350
226.0742	-0.000440
226.2802	-0.001265
226.4863	0.001843
226.6924	-0.000144
226.8985	0.001632
227.1046	-0.000377
227.3107	-0.000123
227.5169	-0.000250
227.7230	0.000426
227.9292	0.002202
228.1354	0.001949
228.3416	0.000553
228.5478	0.001188
228.7541	0.001293
228.9603	0.001230
229.1666	-0.000208
229.3729	0.000976
229.5791	-0.000377
229.7855	-0.002407
229.9918	-0.000758
230.1981	-0.001540
230.4045	0.000405
230.6108	0.001230
230.8172	-0.000377
231.0236	0.000553
231.2300	0.000617
231.4364	-0.000821
231.6429	0.000152
231.8493	0.000130
232.0558	-0.001223
232.2623	-0.001265
232.4688	0.000532
232.6753	-0.000821
232.8818	-0.000292
233.0884	0.000553
233.2949	0.000321
233.5015	0.001674
233.7081	0.000469
233.9147	-0.000356
234.1213	0.001970
234.3279	0.001018
234.5346	-0.001011
234.7413	0.001462
234.9479	-0.000398
235.1546	-0.001688
235.3613	-0.000166
235.5680	0.001568
235.7748	0.000955
235.9815	-0.000208
236.1883	-0.000123
236.3951	0.000934
236.6018	0.002435
236.8087	0.001716
237.0155	0.000596
237.2223	0.000913
237.4292	0.000955
237.6360	-0.000440
237.8429	0.000426
238.0498	0.000934
238.2567	-0.000102
238.4636	0.002477
238.6706	0.000765
238.8775	0.000215
239.0845	-0.000187
239.2915	0.002308
239.4985	0.000215
239.7055	0.001399
239.9125	-0.001181
240.1195	-0.000060
240.3266	0.000321
240.5337	0.000596
240.7407	0.001293
240.9478	0.000638
241.1549	-0.000525
241.3621	0.001124
241.5692	-0.000462
241.7764	0.000469
241.9835	0.000913
242.1907	0.000173
242.3979	-0.000398
242.6051	0.001695
242.8124	0.000638
243.0196	-0.000081
243.2269	0.000405
243.4341	-0.000292
243.6414	0.000109
243.8487	0.001716
244.0560	0.001547
244.2634	0.001484
244.4707	-0.000715
244.6781	0.000574
244.8854	0.001336
245.0928	-0.001075
245.3002	-0.002957
245.5076	0.001145
245.7151	-0.000567
245.9225	0.002583
246.1300	0.000152
246.3375	0.000997
246.5449	-0.000736
246.7524	0.001970
246.9600	0.000997
247.1675	0.001462
247.3750	-0.000610
247.5826	0.000997
247.7902	-0.001054
247.9978	0.001843
248.2054	-0.000863
248.4130	-0.001455
248.6206	-0.000123
248.8283	-0.000483
249.0359	0.000574
249.2436	-0.000504
249.4513	-0.000990
249.6590	0.001420
249.8667	-0.001096
250.0745	0.000236
250.2822	-0.000229
250.4900	-0.000821
250.6978	-0.000250
250.9056	-0.000250
251.1134	0.000469
251.3212	0.000215
251.5290	-0.001181
251.7369	0.000363
251.9447	0.001293
252.1526	-0.000166
252.3605	0.000574
252.5684	-0.001498
252.7763	-0.000673
252.9843	-0.000927
253.1922	0.000828
253.4002	0.000152
253.6082	-0.000863
253.8162	-0.000610
254.0242	-0.000800
254.2322	0.000807
254.4402	-0.000039
254.6483	-0.000440
254.8564	-0.001477
255.0644	0.000025
255.2725	-0.000187
255.4806	-0.001751
255.6888	-0.001751
255.8969	0.000892
256.1051	0.000807
256.3132	-0.000462
256.5214	0.002012
256.7296	-0.000039
256.9378	-0.001730
257.1460	0.000659
257.3543	0.000046
257.5625	-0.000631
257.7708	-0.000758
257.9791	-0.000187
258.1874	-0.001054
258.3957	0.000934
258.6040	0.000130
258.8124	0.000426
259.0207	0.000744
259.2291	-0.000462
259.4375	0.000553
259.6459	-0.000440
259.8543	-0.002470
260.0627	0.000278
260.2711	-0.001667
260.4796	0.000363
260.6881	0.000405
260.8965	0.000342
261.1050	-0.000039
261.3135	0.000765
261.5221	-0.000166
261.7306	0.001166
261.9392	0.000892
262.1477	0.000405
262.3563	-0.000546
262.5649	0.000955
262.7735	0.000004
262.9822	0.000828
263.1908	-0.000483
263.3995	0.002160
263.6081	-0.001138
263.8168	-0.000377
264.0255	-0.000081
264.2342	0.000659
264.4429	0.000067
264.6517	0.001061
264.8604	-0.000694
265.0692	0.001272
265.2780	-0.000356
265.4868	-0.000673
265.6956	-0.000694
265.9044	0.002350
266.1133	0.000934
266.3221	0.000194
266.5310	-0.000166
266.7399	0.000997
266.9488	0.001378
267.1577	0.000659
267.3666	0.000913
267.5755	0.000870
267.7845	0.000194
267.9935	0.000828
268.2024	-0.000694
268.4114	0.000004
268.6205	0.000004
268.8295	0.000004
269.0385	-0.000440
269.2476	0.000130
269.4566	0.000109
269.6657	0.000976
269.8748	-0.000187
270.0839	0.001124
270.2931	-0.000673
270.5022	0.000955
270.7114	-0.000187
270.9205	-0.000906
271.1297	-0.002153
271.3389	0.000976
271.5481	-0.001075
271.7573	-0.000377
271.9666	-0.000144
272.1758	0.000955
272.3851	-0.000842
272.5944	-0.000483
272.8037	-0.001963
273.0130	-0.000546
273.2223	-0.001498
273.4316	-0.000356
273.6410	0.001018
273.8504	0.000870
274.0597	0.000469
274.2691	-0.000652
274.4785	-0.000715
274.6880	0.000088
274.8974	0.001188
275.1069	0.000004
275.3163	-0.000335
275.5258	-0.000398
275.7353	-0.000927
275.9448	0.000194
276.1543	0.000913
276.3639	-0.000736
276.5734	-0.001921
276.7830	0.002879
276.9926	-0.000948
277.2022	0.000638
277.4118	-0.001794
277.6214	0.001293
277.8310	0.000257
278.0407	0.000173
278.2503	-0.000187
278.4600	0.000870
278.6697	0.001251
278.8794	0.000701
279.0891	-0.000250
279.2989	0.002372
279.5086	0.001610
279.7184	0.000574
279.9281	0.000342
280.1379	0.001166
280.3477	-0.001054
280.5576	-0.000631
280.7674	0.000828
280.9772	0.002012
281.1871	-0.000525
281.3970	0.000638
281.6069	0.001906
281.8168	0.000997
282.0267	-0.000462
282.2366	0.000088
282.4466	-0.001350
282.6565	0.001166
282.8665	-0.000335
283.0765	-0.000525
283.2865	0.001166
283.4965	0.000574
283.7065	0.000004
283.9166	-0.000271
284.1266	-0.000906
284.3367	0.000215
284.5468	0.000448
284.7569	-0.000927
284.9670	0.001082
285.1771	0.000638
285.3873	0.000828
285.5974	0.000955
285.8076	0.000934
286.0178	0.000152
286.2280	0.000870
286.4382	0.001674
286.6484	-0.000081
286.8587	0.001230
287.0689	-0.000652
287.2792	0.001166
287.4895	0.001103
287.6998	0.000596
287.9101	-0.000842
288.1204	0.001547
288.3308	-0.001561
288.5411	-0.000018
288.7515	-0.001307
288.9619	-0.000652
289.1723	-0.000039
289.3827	0.000849
289.5931	-0.000166
289.8035	-0.000736
290.0140	0.000490
290.2245	0.000574
290.4349	0.001420
290.6454	0.000849
290.8559	0.000617
291.0665	0.000300
291.2770	0.000384
291.4875	0.000807
291.6981	0.000152
291.9087	-0.000123
292.1193	-0.000102
292.3299	0.001336
292.5405	0.000046
292.7511	-0.000018
292.9618	0.000278
293.1724	0.000004
293.3831	0.001103
293.5938	0.000574
293.8045	0.000109
294.0152	0.000849
294.2260	-0.000335
294.4367	0.000278
294.6475	-0.001603
294.8582	-0.000060
295.0690	0.000934
295.2798	0.001357
295.4906	-0.000419
295.7015	-0.000335
295.9123	-0.001054
296.1232	-0.000060
296.3340	0.000363
296.5449	0.000469
296.7558	-0.000610
296.9667	0.000130
297.1777	0.000173
297.3886	-0.000462
297.5995	-0.000102
297.8105	0.000765
298.0215	-0.000271
298.2325	-0.000694
298.4435	-0.001413
298.6545	0.000088
298.8656	-0.001075
299.0766	-0.001244
299.2877	-0.000631
299.4988	0.000913
299.7099	-0.000398
299.9210	0.001610
300.1321	0.001166
300.3432	0.000638
300.5544	0.000553
300.7655	0.000617
300.9767	0.001420
301.1879	0.000892
301.3991	-0.000292
301.6103	0.000236
301.8215	-0.000610
302.0328	0.000469
302.2441	-0.000229
302.4553	0.001124
302.6666	0.000765
302.8779	-0.000673
303.0892	-0.000144
303.3006	-0.000144
303.5119	0.000025
303.7233	-0.000694
303.9346	0.000067
304.1460	0.000405
304.3574	0.000130
304.5688	-0.001075
304.7803	-0.000250
304.9917	0.001928
305.2031	-0.000123
305.4146	0.000342
305.6261	-0.000546
305.8376	0.000490
306.0491	0.000680
306.2606	-0.000863
306.4722	-0.001096
306.6837	-0.000927
306.8953	-0.001307
307.1069	-0.001202
307.3184	-0.000187
307.5301	-0.000398
307.7417	-0.001477
307.9533	0.000278
308.1650	-0.001138
308.3766	0.000849
308.5883	-0.000800
308.8000	0.000976
309.0117	0.000870
309.2234	0.000088
309.4351	-0.001942
309.6469	0.001166
309.8586	0.000701
310.0704	0.000934
310.2822	-0.000546
310.4940	0.000532
310.7058	-0.000821
310.9176	-0.001159
311.1295	0.000300
311.3413	0.000448
311.5532	-0.001561
311.7651	0.000215
311.9770	-0.000144
312.1889	0.002012
312.4008	-0.000271
312.6127	-0.000102
312.8247	0.000490
313.0366	0.000194
313.2486	-0.001265
313.4606	0.000532
313.6726	0.001209
313.8846	0.000828
314.0967	-0.001561
314.3087	-0.000250
314.5208	-0.000440
314.7328	-0.000567
314.9449	-0.000736
315.1570	0.000025
315.3692	0.000448
315.5813	-0.001286
315.7934	0.000638
316.0056	-0.001075
316.2177	-0.001202
316.4299	-0.000356
316.6421	-0.000187
316.8543	-0.000504
317.0666	-0.000144
317.2788	0.000194
317.4911	-0.001286
317.7033	0.000680
317.9156	0.000828
318.1279	0.001082
318.3402	0.000342
318.5525	-0.001202
318.7649	-0.001307
318.9772	-0.000652
319.1896	0.000448
319.4019	-0.000440
319.6143	-0.000166
319.8267	0.000342
320.0392	0.000553
320.2516	0.000278
320.4640	-0.000631
320.6765	-0.000673
320.8890	0.000363
321.1014	-0.000187
321.3139	0.000109
321.5265	0.001822
321.7390	0.000490
321.9515	-0.001244
322.1641	-0.001350
322.3766	-0.000123
322.5892	0.000765
322.8018	0.000025
323.0144	0.000680
323.2270	0.000426
323.4397	-0.001540
323.6523	-0.000842
323.8650	0.000405
324.0777	-0.001033
324.2904	-0.000060
324.5031	-0.000906
324.7158	-0.000018
324.9285	-0.000292
325.1412	-0.000779
325.3540	0.000426
325.5668	-0.000842
325.7796	0.000109
325.9924	-0.000800
326.2052	0.001378
326.4180	-0.001075
326.6308	0.000828
326.8437	-0.001011
327.0566	0.000469
327.2694	0.000215
327.4823	-0.000546
327.6952	0.000638
327.9082	0.000786
328.1211	0.002118
328.3340	0.000722
328.5470	0.001293
328.7600	0.000490
328.9730	-0.001942
329.1860	0.000384
329.3990	0.001145
329.6120	0.000659
329.8251	-0.000377
330.0381	0.000152
330.2512	0.000659
330.4643	0.000405
330.6774	0.002985
330.8905	0.000342
331.1036	0.000426
331.3167	-0.000927
331.5299	0.000363
331.7431	0.000046
331.9562	-0.001329
332.1694	0.000913
332.3826	-0.000144
332.5959	-0.000419
332.8091	0.002012
333.0223	0.001103
333.2356	0.001526
333.4489	-0.000271
333.6622	0.000448
333.8755	0.000490
334.0888	0.000490
334.3021	0.000088
334.5154	0.000913
334.7288	0.000870
334.9422	0.000574
335.1555	0.000004
335.3689	0.000384
335.5823	0.000617
335.7958	-0.000567
336.0092	0.000828
336.2227	-0.000927
336.4361	0.001441
336.6496	-0.000927
336.8631	0.002583
337.0766	0.000955
337.2901	-0.000081
337.5036	0.000278
337.7172	0.000130
337.9307	0.000004
338.1443	0.000088
338.3579	0.000786
338.5715	0.001864
338.7851	-0.001033
338.9987	0.000574
339.2124	-0.000694
339.4260	-0.000102
339.6397	0.000067
339.8533	-0.000144
340.0670	0.000469
340.2807	-0.000314
340.4945	-0.000335
340.7082	-0.000144
340.9219	0.000617
341.1357	0.000617
341.3495	-0.001181
341.5633	0.000722
341.7771	-0.000440
341.9909	0.002583
342.2047	-0.001117
342.4185	-0.000018
342.6324	0.000321
342.8463	0.000913
343.0601	0.000913
343.2740	0.000004
343.4879	-0.000863
343.7019	-0.000018
343.9158	-0.000525
344.1297	0.001378
344.3437	0.001505
344.5577	0.000426
344.7717	-0.000884
344.9857	0.001737
345.1997	-0.000504
345.4137	0.000828
345.6277	-0.000377
345.8418	-0.000610
346.0559	0.000046
346.2699	-0.000060
346.4840	-0.000039
346.6981	-0.000018
346.9123	-0.001075
347.1264	-0.000673
347.3406	-0.001075
347.5547	0.000278
347.7689	-0.000673
347.9831	-0.001117
348.1973	0.000215
348.4115	0.001314
348.6257	-0.000588
348.8400	-0.000398
349.0542	0.001061
349.2685	0.000744
349.4828	0.001505
349.6971	0.000173
349.9114	-0.001413
350.1257	0.001209
350.3400	0.001124
350.5544	0.001124
350.7687	-0.000419
350.9831	0.000384
351.1975	-0.000081
351.4119	0.000596
351.6263	0.000321
351.8407	0.000828
352.0552	0.000384
352.2696	0.000321
352.4841	0.000004
352.6986	0.000278
352.9131	-0.000525
353.1276	0.000955
353.3421	-0.000906
353.5566	0.000913
353.7712	0.001188
353.9858	0.001188
354.2003	0.000490
354.4149	-0.001096
354.6295	0.000025
354.8441	0.000236
355.0588	0.000257
355.2734	-0.000144
355.4881	-0.000208
355.7027	-0.000462
355.9174	-0.000166
356.1321	0.000236
356.3468	-0.000102
356.5615	0.000363
356.7763	-0.000187
356.9910	0.001061
357.2058	0.001526
357.4206	-0.000102
357.6353	-0.000292
357.8501	0.001505
358.0650	0.000342
358.2798	0.000088
358.4946	0.000849
358.7095	-0.000060
358.9243	-0.000377
359.1392	-0.000462
359.3541	-0.002322
359.5690	0.001885
359.7839	0.001018
359.9989	0.000934
360.2138	-0.000927
360.4288	-0.001857
360.6438	0.000638
360.8587	0.001505
361.0737	0.000130
361.2888	0.000109
361.5038	-0.000144
361.7188	0.000553
361.9339	-0.000821
362.1489	0.000934
362.3640	0.000046
362.5791	0.000976
362.7942	-0.001286
363.0093	0.002054
363.2245	-0.000588
363.4396	0.000997
363.6548	-0.002259
363.8699	0.000173
364.0851	0.002266
364.3003	0.002562
364.5155	-0.001011
364.7308	0.001484
364.9460	0.000511
365.1612	-0.000187
365.3765	0.000828
365.5918	-0.001498
365.8071	-0.000144
366.0224	0.001230
366.2377	0.000152
366.4530	0.000046
366.6684	-0.000335
366.8837	0.000744
367.0991	0.001209
367.3145	-0.000927
367.5299	-0.000610
367.7453	0.000574
367.9607	-0.001307
368.1761	0.000067
368.3916	-0.000779
368.6070	0.000680
368.8225	-0.000144
369.0380	-0.001286
369.2535	0.002033
369.4690	-0.001286
369.6845	0.000025
369.9001	0.000321
370.1156	0.000511
370.3312	0.000638
370.5468	-0.000123
370.7624	0.000130
370.9780	0.000194
371.1936	0.002012
371.4092	-0.000588
371.6249	0.001568
371.8405	0.001547
372.0562	-0.000166
372.2719	-0.001646
372.4876	0.001357
372.7033	-0.000525
372.9190	-0.000081
373.1348	-0.000229
373.3505	0.001547
373.5663	0.000321
373.7820	0.001209
373.9978	-0.000292
374.2136	0.000173
374.4294	0.000870
374.6453	0.001018
374.8611	-0.000800
375.0770	0.001695
375.2928	-0.001836
375.5087	0.000490
375.7246	0.000913
375.9405	0.000067
376.1564	0.002858
376.3724	0.001547
376.5883	0.000088
376.8043	0.000934
377.0203	-0.000673
377.2362	-0.000398
377.4522	-0.001054
377.6682	-0.000018
377.8843	0.000680
378.1003	0.000680
378.3164	0.000067
378.5324	0.000405
378.7485	0.000596
378.9646	-0.000208
379.1807	0.000469
379.3968	0.001632
379.6129	0.001695
379.8291	0.000152
380.0452	-0.001075
380.2614	0.000469
380.4776	-0.000758
380.6938	-0.000969
380.9100	0.000067
381.1262	0.000130
381.3424	-0.000314
381.5587	0.000849
381.7749	-0.000546
381.9912	-0.000250
382.2075	-0.000525
382.4238	0.000617
382.6401	-0.000694
382.8564	-0.000610
383.0728	-0.000462
383.2891	-0.000018
383.5055	0.000342
383.7219	-0.000948
383.9382	-0.000335
384.1546	-0.000398
384.3711	0.001737
384.5875	-0.001033
384.8039	-0.000081
385.0204	0.000553
385.2368	0.000638
385.4533	-0.000123
385.6698	0.000659
385.8863	-0.000927
386.1028	-0.001371
386.3194	-0.001117
386.5359	-0.000990
386.7525	-0.000271
386.9690	0.000215
387.1856	-0.001033
387.4022	-0.000039
387.6188	0.000130
387.8355	-0.001223
388.0521	0.001589
388.2687	0.000278
388.4854	-0.000123
388.7021	-0.000039
388.9188	0.000109
389.1355	0.001547
389.3522	0.000236
389.5689	-0.000335
389.7856	0.000828
390.0024	-0.000335
390.2192	0.000342
390.4359	0.000828
390.6527	0.000469
390.8695	-0.000081
391.0863	-0.001138
391.3032	0.000152
391.5200	-0.000779
391.7369	0.000173
391.9537	0.001293
392.1706	-0.000060
392.3875	-0.000800
392.6044	-0.001244
392.8213	0.001547
393.0383	-0.000039
393.2552	0.000511
393.4722	-0.000779
393.6891	-0.000144
393.9061	0.000384
394.1231	-0.001371
394.3401	-0.000525
394.5572	-0.001519
394.7742	0.000448
394.9912	0.000807
395.2083	-0.000694
395.4254	-0.000715
395.6425	0.000849
395.8596	0.001061
396.0767	-0.001096
396.2938	0.000363
396.5109	0.000194
396.7281	0.000744
396.9453	-0.001625
397.1624	0.001674
397.3796	-0.000631
397.5968	0.000448
397.8140	0.000617
398.0313	-0.000144
398.2485	-0.001138
398.4658	0.000046
398.6830	-0.001033
398.9003	-0.000271
399.1176	-0.001117
399.3349	0.001188
399.5522	-0.000440
399.7696	-0.000462
399.9869	-0.000356
400.2043	0.001124
400.4216	-0.001667
400.6390	0.001336
400.8564	0.001357
401.0738	0.000321
401.2912	-0.000631
401.5087	0.000955
401.7261	0.000067
401.9436	0.001230
402.1610	0.000173
402.3785	0.000067
402.5960	-0.000314
402.8135	-0.000884
403.0310	-0.000335
403.2486	0.000130
403.4661	-0.000525
403.6837	-0.000208
403.9013	0.001145
404.1189	0.000638
404.3365	-0.000948
404.5541	-0.000229
404.7717	-0.000821
404.9893	0.000046
405.2070	-0.001688
405.4246	0.000765
405.6423	-0.000483
405.8600	0.000828
406.0777	-0.000377
406.2954	0.000067
406.5131	-0.000610
406.7309	0.000257
406.9486	-0.001455
407.1664	0.000469
407.3842	-0.000377
407.6020	0.000807
407.8198	-0.000166
408.0376	-0.000588
408.2554	0.001103
408.4733	0.001145
408.6911	0.000892
408.9090	0.000363
409.1269	0.001018
409.3448	-0.000546
409.5627	0.000025
409.7806	-0.001307
409.9985	0.000025
410.2165	0.000596
410.4344	0.000532
410.6524	-0.000610
410.8704	0.000701
411.0884	-0.000800
411.3064	0.001040
411.5244	-0.000927
411.7424	0.000680
411.9605	-0.000525
412.1785	0.000553
412.3966	0.000722
412.6147	0.001547
412.8328	-0.000948
413.0509	-0.000715
413.2690	0.000892
413.4871	-0.000419
413.7053	-0.000504
413.9234	0.000892
414.1416	-0.000863
414.3598	-0.000525
414.5780	0.000321
414.7962	0.000109
415.0144	0.000448
415.2326	0.001272
415.4509	-0.001413
415.6692	-0.000546
415.8874	0.001695
416.1057	0.000532
416.3240	0.000300
416.5423	-0.000462
416.7606	-0.000081
416.9790	-0.000906
417.1973	0.000278
417.4157	-0.001181
417.6341	0.000278
417.8524	-0.001202
418.0708	-0.000398
418.2893	0.001441
418.5077	-0.000229
418.7261	0.001209
418.9446	-0.001350
419.1630	0.000659
419.3815	0.000384
419.6000	-0.001540
419.8185	-0.001011
420.0370	0.001103
420.2555	-0.000271
420.4741	0.001251
420.6926	-0.000018
420.9112	0.000553
421.1298	-0.001561
421.3483	0.001209
421.5669	0.000342
421.7856	-0.000271
422.0042	-0.000314
422.2228	-0.000821
422.4415	-0.000779
422.6601	-0.000335
422.8788	-0.000779
423.0975	0.000744
423.3162	-0.000483
423.5349	-0.000335
423.7536	-0.000525
423.9724	-0.000631
424.1911	0.000384
424.4099	0.002224
424.6287	-0.000187
424.8475	0.001061
425.0663	-0.000483
425.2851	0.001780
425.5039	0.007065
425.7228	0.001737
425.9416	0.001484
426.1605	-0.000588
426.3793	0.000469
426.5982	0.000997
