# Wavelength (nm)	Intensity (a.u.)
197.7802	0.000316
197.9842	-0.000991
198.1882	-0.000506
198.3922	-0.000232
198.5963	0.001413
198.8003	0.000063
199.0044	0.000295
199.2085	-0.001223
199.4126	0.001687
199.6168	-0.000253
199.8209	0.000696
200.0251	-0.001055
200.2292	-0.000759
200.4334	0.001350
200.6376	0.000696
200.8418	0.000569
201.0461	-0.000675
201.2503	0.000380
201.4546	0.000063
201.6589	-0.000654
201.8631	0.001455
202.0674	0.000084
202.2718	-0.000021
202.4761	0.000380
202.6805	-0.000633
202.8848	0.000232
203.0892	0.000105
203.2936	-0.000886
203.4980	0.001076
203.7024	0.000612
203.9069	0.001519
204.1113	0.000127
204.3158	0.000359
204.5203	-0.000316
204.7248	0.001498
204.9293	-0.000506
205.1338	0.000801
205.3384	0.001856
205.5430	0.000000
205.7475	-0.000970
205.9521	0.001455
206.1567	-0.001223
206.3614	-0.000696
206.5660	0.001139
206.7706	0.000337
206.9753	0.000612
207.1800	0.002067
207.3847	0.000127
207.5894	0.000654
207.7941	-0.001434
207.9989	0.000148
208.2036	0.000569
208.4084	0.001498
208.6132	-0.000253
208.8180	0.000105
209.0228	0.000380
209.2276	0.001160
209.4325	0.001012
209.6373	-0.001266
209.8422	0.000359
210.0471	0.001055
210.2520	0.000991
210.4569	0.000759
210.6618	0.000591
210.8668	0.000949
211.0718	-0.000232
211.2767	0.002426
211.4817	-0.001097
211.6867	0.000380
211.8918	0.000548
212.0968	0.000485
212.3018	0.000253
212.5069	0.001498
212.7120	0.000591
212.9171	0.000654
213.1222	-0.000928
213.3273	0.000886
213.5325	-0.000211
213.7376	0.001413
213.9428	-0.000211
214.1480	0.001708
214.3532	-0.000190
214.5584	-0.000274
214.7636	0.000991
214.9689	0.000401
215.1741	0.000105
215.3794	0.001898
215.5847	-0.000295
215.7900	0.000485
215.9953	-0.000591
216.2007	0.002257
216.4060	0.000612
216.6114	0.000801
216.8168	-0.001751
217.0222	0.001455
217.2276	-0.000464
217.4330	-0.000105
217.6384	0.000190
217.8439	0.000337
218.0494	-0.000527
218.2548	0.001962
218.4603	0.001498
218.6659	-0.000759
218.8714	-0.000084
219.0769	0.001561
219.2825	0.001076
219.4881	0.000359
219.6936	0.000021
219.8992	0.000021
220.1049	0.000021
220.3105	-0.000042
220.5161	-0.001202
220.7218	0.001097
220.9275	-0.000232
221.1332	0.000316
221.3389	0.000569
221.5446	-0.000105
221.7503	0.000548
221.9561	0.000970
222.1618	-0.000295
222.3676	0.001476
222.5734	0.000211
222.7792	0.000569
222.9850	0.000464
223.1909	-0.000295
223.3967	0.000337
223.6026	0.000759
223.8085	0.000780
224.0144	0.000717
224.2203	-0.000021
224.4262	0.000759
224.6322	0.000654
224.8381	0.000612
225.0441	-0.000548
225.2501	-0.000569
225.4561	0.000443
225.6621	-0.000063
225.8681	0.000148
226.0742	0.001160
226.2802	0.000633
226.4863	0.001118
226.6924	0.001624
226.8985	0.000359
227.1046	-0.001582
227.3107	0.000485
227.5169	0.000633
227.7230	0.001202
227.9292	0.000169
228.1354	0.000316
228.3416	0.000401
228.5478	0.001202
228.7541	0.000422
228.9603	-0.000295
229.1666	-0.000717
229.3729	0.000633
229.5791	0.001708
229.7855	-0.000084
229.9918	-0.000865
230.1981	-0.000021
230.4045	0.001392
230.6108	0.000105
230.8172	-0.000612
231.0236	-0.000127
231.2300	-0.000443
231.4364	-0.000422
231.6429	-0.000042
231.8493	0.001202
232.0558	0.000190
232.2623	0.000359
232.4688	0.001498
232.6753	0.000337
232.8818	0.000591
233.0884	0.000928
233.2949	0.000801
233.5015	0.000359
233.7081	-0.000527
233.9147	-0.000443
234.1213	0.000591
234.3279	0.001223
234.5346	-0.000949
234.7413	-0.001076
234.9479	0.000696
235.1546	0.000422
235.3613	-0.000316
235.5680	0.001244
235.7748	0.000823
235.9815	0.000949
236.1883	-0.000591
236.3951	0.000232
236.6018	0.001371
236.8087	0.000717
237.0155	0.000359
237.2223	0.000127
237.4292	0.000823
237.6360	0.000633
237.8429	-0.000105
238.0498	0.000612
238.2567	-0.000084
238.4636	-0.000232
238.6706	0.000991
238.8775	0.000569
239.0845	0.000485
239.2915	0.001076
239.4985	0.000569
239.7055	0.001308
239.9125	0.000844
240.1195	0.001371
240.3266	-0.000021
240.5337	0.000148
240.7407	-0.000084
240.9478	-0.000169
241.1549	-0.000316
241.3621	-0.000042
241.5692	-0.000316
241.7764	0.001076
241.9835	0.001076
242.1907	0.001687
242.3979	0.001287
242.6051	0.000970
242.8124	0.000506
243.0196	-0.000211
243.2269	0.000717
243.4341	0.001266
243.6414	-0.000464
243.8487	-0.000295
244.0560	-0.000380
244.2634	0.001223
244.4707	-0.000190
244.6781	0.000274
244.8854	0.000190
245.0928	0.000928
245.3002	-0.000063
245.5076	0.000316
245.7151	-0.001476
245.9225	0.000211
246.1300	-0.000211
246.3375	0.000738
246.5449	0.000675
246.7524	0.001118
246.9600	0.000148
247.1675	0.000759
247.3750	-0.001055
247.5826	0.000569
247.7902	0.000717
247.9978	0.001202
248.2054	0.000084
248.4130	0.001624
248.6206	-0.000316
248.8283	0.001266
249.0359	-0.000316
249.2436	-0.000759
249.4513	-0.000717
249.6590	0.001118
249.8667	0.001519
250.0745	-0.001540
250.2822	0.001455
250.4900	0.000591
250.6978	-0.000633
250.9056	-0.000042
251.1134	0.000548
251.3212	0.002594
251.5290	-0.000506
251.7369	0.000612
251.9447	-0.000380
252.1526	0.000316
252.3605	-0.000021
252.5684	0.000907
252.7763	0.000190
252.9843	0.001371
253.1922	0.000337
253.4002	-0.000274
253.6082	-0.000823
253.8162	0.001012
254.0242	0.001540
254.2322	0.001751
254.4402	-0.000485
254.6483	0.000886
254.8564	0.001350
255.0644	-0.000569
255.2725	-0.001223
255.4806	-0.000274
255.6888	0.000548
255.8969	0.000970
256.1051	-0.000063
256.3132	-0.000633
256.5214	-0.000105
256.7296	-0.000907
256.9378	-0.000591
257.1460	0.000527
257.3543	0.000401
257.5625	0.000000
257.7708	0.000506
257.9791	-0.000443
258.1874	-0.000738
258.3957	-0.000253
258.6040	0.000949
258.8124	0.000738
259.0207	0.001118
259.2291	-0.000485
259.4375	0.000169
259.6459	0.000991
259.8543	-0.000148
260.0627	0.000105
260.2711	-0.000190
260.4796	0.001455
260.6881	-0.000401
260.8965	0.000823
261.1050	-0.000359
261.3135	0.001919
261.5221	0.000337
261.7306	0.000485
261.9392	0.001413
262.1477	0.000591
262.3563	0.001244
262.5649	0.001012
262.7735	0.000063
262.9822	0.000654
263.1908	0.000232
263.3995	-0.000021
263.6081	-0.000316
263.8168	0.000907
264.0255	-0.000928
264.2342	-0.000654
264.4429	0.000527
264.6517	0.001624
264.8604	-0.000148
265.0692	0.000717
265.2780	-0.000380
265.4868	0.000253
265.6956	0.000253
265.9044	0.000696
266.1133	0.001772
266.3221	0.000991
266.5310	0.001519
266.7399	0.001012
266.9488	-0.000633
267.1577	0.000633
267.3666	-0.000232
267.5755	0.000569
267.7845	-0.000042
267.9935	0.000738
268.2024	-0.000633
268.4114	0.000127
268.6205	-0.000823
268.8295	0.000084
269.0385	0.000127
269.2476	0.000991
269.4566	0.000274
269.6657	0.001856
269.8748	-0.000422
270.0839	0.000991
270.2931	0.000316
270.5022	0.000464
270.7114	-0.001287
270.9205	0.000401
271.1297	0.000232
271.3389	-0.000823
271.5481	0.000084
271.7573	-0.000253
271.9666	-0.000211
272.1758	-0.000928
272.3851	0.000190
272.5944	0.000738
272.8037	-0.000485
273.0130	0.000042
273.2223	0.001055
273.4316	0.001076
273.6410	0.000063
273.8504	-0.000063
274.0597	-0.000127
274.2691	0.000401
274.4785	-0.001287
274.6880	0.000738
274.8974	0.000738
275.1069	-0.001097
275.3163	-0.000169
275.5258	-0.000211
275.7353	0.001076
275.9448	-0.000211
276.1543	-0.000591
276.3639	0.001371
276.5734	0.001708
276.7830	0.001033
276.9926	0.000759
277.2022	-0.000591
277.4118	-0.001012
277.6214	0.000337
277.8310	-0.000422
278.0407	-0.000084
278.2503	-0.000780
278.4600	0.000232
278.6697	0.000232
278.8794	0.000232
279.0891	0.000780
279.2989	0.000928
279.5086	0.000485
279.7184	0.001455
279.9281	-0.001413
280.1379	0.001097
280.3477	-0.000211
280.5576	-0.001392
280.7674	0.000612
280.9772	0.000443
281.1871	0.001076
281.3970	0.001076
281.6069	-0.000991
281.8168	0.001371
282.0267	0.000422
282.2366	0.000907
282.4466	-0.000253
282.6565	0.000717
282.8665	-0.000042
283.0765	0.001856
283.2865	0.001350
283.4965	0.001202
283.7065	0.000991
283.9166	0.001139
284.1266	-0.000253
284.3367	-0.000084
284.5468	-0.000084
284.7569	-0.000401
284.9670	0.000633
285.1771	0.001350
285.3873	0.000464
285.5974	0.000612
285.8076	0.000190
286.0178	0.000696
286.2280	0.000295
286.4382	0.000949
286.6484	-0.001012
286.8587	0.001076
287.0689	-0.000612
287.2792	0.001772
287.4895	0.001118
287.6998	0.000359
287.9101	-0.001266
288.1204	0.001856
288.3308	-0.000696
288.5411	0.000485
288.7515	0.000907
288.9619	0.000253
289.1723	-0.000148
289.3827	0.000380
289.5931	0.001012
289.8035	0.000949
290.0140	-0.001308
290.2245	0.000042
290.4349	0.000190
290.6454	0.001835
290.8559	-0.000569
291.0665	0.000569
291.2770	-0.000696
291.4875	0.000127
291.6981	0.000970
291.9087	0.000485
292.1193	0.000190
292.3299	0.000316
292.5405	0.000211
292.7511	0.000274
292.9618	0.000949
293.1724	0.001266
293.3831	0.000780
293.5938	0.000717
293.8045	-0.000316
294.0152	0.000780
294.2260	-0.000211
294.4367	-0.000169
294.6475	-0.000148
294.8582	-0.000485
295.0690	0.000422
295.2798	0.000675
295.4906	-0.000169
295.7015	0.001287
295.9123	-0.000232
296.1232	0.000274
296.3340	0.001455
296.5449	0.000780
296.7558	-0.000464
296.9667	0.000907
297.1777	-0.000211
297.3886	-0.000443
297.5995	0.000738
297.8105	0.000569
298.0215	-0.000211
298.2325	0.002847
298.4435	0.000865
298.6545	0.001730
298.8656	-0.000359
299.0766	0.002236
299.2877	-0.000021
299.4988	0.001139
299.7099	0.000928
299.9210	0.001582
300.1321	-0.000148
300.3432	0.000422
300.5544	-0.000274
300.7655	-0.000127
300.9767	-0.000443
301.1879	0.000527
301.3991	0.000823
301.6103	-0.000548
301.8215	0.002172
302.0328	0.000844
302.2441	0.001181
302.4553	0.002341
302.6666	0.001877
302.8779	-0.000422
303.0892	0.000738
303.3006	0.001287
303.5119	0.000253
303.7233	0.001730
303.9346	-0.001266
304.1460	-0.000021
304.3574	0.001962
304.5688	-0.000991
304.7803	0.000696
304.9917	-0.000337
305.2031	0.000633
305.4146	0.000380
305.6261	-0.000717
305.8376	0.000780
306.0491	0.000422
306.2606	0.000696
306.4722	0.000780
306.6837	-0.000506
306.8953	-0.000654
307.1069	0.000949
307.3184	0.001012
307.5301	0.000696
307.7417	-0.000169
307.9533	0.001687
308.1650	0.000021
308.3766	0.002194
308.5883	0.000274
308.8000	0.001160
309.0117	0.000865
309.2234	0.000823
309.4351	-0.001266
309.6469	-0.000696
309.8586	0.001814
310.0704	0.001413
310.2822	0.000190
310.4940	0.000211
310.7058	0.000569
310.9176	-0.000232
311.1295	0.000759
311.3413	0.000780
311.5532	-0.000274
311.7651	0.002109
311.9770	-0.000401
312.1889	0.000422
312.4008	0.001118
312.6127	0.001476
312.8247	0.000970
313.0366	-0.000633
313.2486	0.000823
313.4606	0.001097
313.6726	-0.000633
313.8846	0.001498
314.0967	-0.001223
314.3087	0.000780
314.5208	0.000949
314.7328	0.000991
314.9449	-0.000316
315.1570	0.001033
315.3692	-0.000949
315.5813	0.002531
315.7934	0.001434
316.0056	0.002615
316.2177	0.000422
316.4299	0.000063
316.6421	0.000759
316.8543	0.000401
317.0666	0.000000
317.2788	0.000148
317.4911	-0.000506
317.7033	0.001498
317.9156	0.000865
318.1279	0.001730
318.3402	-0.000675
318.5525	-0.000232
318.7649	0.000928
318.9772	0.001181
319.1896	-0.000148
319.4019	0.000865
319.6143	-0.001181
319.8267	0.001582
320.0392	-0.000211
320.2516	0.000591
320.4640	0.000991
320.6765	0.000612
320.8890	0.001392
321.1014	-0.000548
321.3139	0.001329
321.5265	0.000337
321.7390	0.000274
321.9515	0.000084
322.1641	-0.000105
322.3766	0.000380
322.5892	-0.000970
322.8018	0.001498
323.0144	0.000801
323.2270	0.001666
323.4397	-0.000949
323.6523	0.000169
323.8650	0.000127
324.0777	0.002025
324.2904	-0.000211
324.5031	0.000717
324.7158	0.000928
324.9285	0.000485
325.1412	-0.000865
325.3540	0.001266
325.5668	-0.001793
325.7796	0.000991
325.9924	0.001498
326.2052	0.001582
326.4180	-0.000148
326.6308	0.000886
326.8437	-0.000021
327.0566	0.001856
327.2694	-0.001012
327.4823	0.000717
327.6952	0.000401
327.9082	0.001244
328.1211	0.000928
328.3340	0.000928
328.5470	0.000105
328.7600	0.000780
328.9730	0.000527
329.1860	0.001076
329.3990	-0.001012
329.6120	0.001434
329.8251	0.001793
330.0381	-0.000949
330.2512	0.000506
330.4643	0.000970
330.6774	0.000865
330.8905	0.000232
331.1036	-0.001413
331.3167	0.001160
331.5299	0.000527
331.7431	-0.000527
331.9562	0.000801
332.1694	0.001898
332.3826	0.000443
332.5959	0.001223
332.8091	0.000337
333.0223	0.000527
333.2356	-0.001287
333.4489	0.001097
333.6622	-0.000548
333.8755	-0.000717
334.0888	0.001097
334.3021	-0.000063
334.5154	-0.000759
334.7288	0.001181
334.9422	-0.000485
335.1555	0.001329
335.3689	0.000591
335.5823	0.000464
335.7958	0.000380
336.0092	0.001012
336.2227	-0.000042
336.4361	0.000422
336.6496	-0.000717
336.8631	0.000337
337.0766	0.000612
337.2901	0.001012
337.5036	0.000506
337.7172	0.001666
337.9307	0.000464
338.1443	0.000105
338.3579	-0.000844
338.5715	0.001202
338.7851	0.000844
338.9987	0.000801
339.2124	0.000844
339.4260	-0.000422
339.6397	-0.000316
339.8533	0.000949
340.0670	-0.000274
340.2807	0.000548
340.4945	-0.001202
340.7082	0.001603
340.9219	-0.000211
341.1357	0.000021
341.3495	0.000717
341.5633	0.000591
341.7771	-0.000063
341.9909	0.000105
342.2047	-0.000127
342.4185	0.000127
342.6324	-0.000443
342.8463	0.001244
343.0601	-0.001434
343.2740	-0.000548
343.4879	0.000654
343.7019	0.000801
343.9158	-0.000506
344.1297	0.001076
344.3437	0.001139
344.5577	0.000422
344.7717	0.000738
344.9857	0.000422
345.1997	-0.000485
345.4137	-0.000169
345.6277	0.000991
345.8418	0.000042
346.0559	0.000696
346.2699	0.001793
346.4840	0.000042
346.6981	0.000780
346.9123	0.000696
347.1264	-0.000738
347.3406	0.000485
347.5547	0.000991
347.7689	0.000696
347.9831	0.000401
348.1973	0.000991
348.4115	0.000970
348.6257	0.000337
348.8400	0.000401
349.0542	0.000717
349.2685	0.000316
349.4828	-0.000738
349.6971	0.000485
349.9114	0.000021
350.1257	0.000759
350.3400	-0.000527
350.5544	0.000084
350.7687	0.000759
350.9831	0.000337
351.1975	-0.000865
351.4119	0.001561
351.6263	0.000084
351.8407	0.001202
352.0552	-0.000422
352.2696	-0.000148
352.4841	-0.000633
352.6986	0.001139
352.9131	-0.000337
353.1276	0.000717
353.3421	-0.000591
353.5566	0.001076
353.7712	0.000337
353.9858	0.000232
354.2003	-0.000527
354.4149	-0.001033
354.6295	0.000443
354.8441	0.001751
355.0588	0.000211
355.2734	0.000401
355.4881	0.000780
355.7027	0.000190
355.9174	0.001835
356.1321	0.001898
356.3468	0.000422
356.5615	0.000886
356.7763	0.000401
356.9910	0.000527
357.2058	0.001033
357.4206	0.000633
357.6353	0.000148
357.8501	-0.000127
358.0650	-0.000190
358.2798	0.000190
358.4946	0.001350
358.7095	0.000148
358.9243	-0.000633
359.1392	0.000991
359.3541	-0.000105
359.5690	0.000274
359.7839	-0.000548
359.9989	0.001033
360.2138	0.000316
360.4288	0.001919
360.6438	0.000612
360.8587	-0.000907
361.0737	-0.001076
361.2888	0.001076
361.5038	0.000569
361.7188	0.000337
361.9339	-0.000148
362.1489	0.000633
362.3640	0.000464
362.5791	0.001645
362.7942	-0.000780
363.0093	0.001329
363.2245	0.000506
363.4396	-0.000380
363.6548	-0.000675
363.8699	0.001476
364.0851	-0.000084
364.3003	0.000886
364.5155	-0.000991
364.7308	0.002046
364.9460	0.000907
365.1612	0.001160
365.3765	-0.000823
365.5918	0.000401
365.8071	0.000865
366.0224	-0.001033
366.2377	0.000337
366.4530	0.000844
366.6684	-0.000886
366.8837	0.001350
367.0991	-0.000443
367.3145	0.000696
367.5299	0.000253
367.7453	-0.000169
367.9607	0.000422
368.1761	-0.000084
368.3916	0.000591
368.6070	0.000232
368.8225	0.001012
369.0380	0.001329
369.2535	-0.001055
369.4690	0.000042
369.6845	0.001645
369.9001	-0.000886
370.1156	-0.000654
370.3312	0.000274
370.5468	0.000253
370.7624	0.000401
370.9780	-0.000591
371.1936	0.000928
371.4092	0.001287
371.6249	0.000464
371.8405	0.001118
372.0562	0.000949
372.2719	0.000380
372.4876	0.001371
372.7033	-0.000316
372.9190	0.000928
373.1348	0.000443
373.3505	0.000485
373.5663	0.000169
373.7820	0.000823
373.9978	-0.000021
374.2136	0.000569
374.4294	-0.000696
374.6453	0.000485
374.8611	0.001097
375.0770	-0.000253
375.2928	0.000823
375.5087	0.000211
375.7246	-0.000127
375.9405	-0.000422
376.1564	0.000359
376.3724	0.000211
376.5883	-0.000169
376.8043	-0.000274
377.0203	-0.000274
377.2362	0.000443
377.4522	-0.000780
377.6682	-0.000401
377.8843	-0.000780
378.1003	0.000485
378.3164	0.000612
378.5324	0.002531
378.7485	-0.000527
378.9646	0.000527
379.1807	-0.000654
379.3968	0.000991
379.6129	0.000359
379.8291	-0.000506
380.0452	-0.001097
380.2614	0.000696
380.4776	-0.000021
380.6938	0.000148
380.9100	0.001012
381.1262	0.000042
381.3424	-0.000253
381.5587	-0.000485
381.7749	-0.000359
381.9912	0.000148
382.2075	0.000127
382.4238	0.000021
382.6401	-0.000569
382.8564	0.001223
383.0728	0.002109
383.2891	0.000612
383.5055	0.000738
383.7219	-0.000063
383.9382	-0.000359
384.1546	0.001413
384.3711	0.001139
384.5875	-0.000042
384.8039	0.000991
385.0204	0.000738
385.2368	-0.000422
385.4533	0.000337
385.6698	0.000337
385.8863	0.001371
386.1028	0.000591
386.3194	0.002130
386.5359	0.000949
386.7525	0.000042
386.9690	-0.000063
387.1856	0.000253
387.4022	-0.000169
387.6188	0.002257
387.8355	0.002911
388.0521	0.002868
388.2687	0.001835
388.4854	0.003185
388.7021	0.000696
388.9188	0.001392
389.1355	0.002510
389.3522	0.002151
389.5689	0.002636
389.7856	0.001308
390.0024	0.002426
390.2192	0.003944
390.4359	0.003733
390.6527	0.003248
390.8695	0.002383
391.0863	0.004682
391.3032	0.003354
391.5200	0.004450
391.7369	0.002447
391.9537	0.004851
392.1706	0.005294
392.3875	0.006538
392.6044	0.004324
392.8213	0.005863
393.0383	0.006960
393.2552	0.006096
393.4722	0.006538
393.6891	0.006538
393.9061	0.007614
394.1231	0.005695
394.3401	0.006538
394.5572	0.005990
394.7742	0.007192
394.9912	0.006770
395.2083	0.006855
395.4254	0.007213
395.6425	0.007403
395.8596	0.007677
396.0767	0.008479
396.2938	0.008922
396.5109	0.008120
396.7281	0.009660
396.9453	0.008394
397.1624	0.009955
397.3796	0.010672
397.5968	0.010483
397.8140	0.010145
398.0313	0.012149
398.2485	0.010525
398.4658	0.011727
398.6830	0.012571
398.9003	0.012528
399.1176	0.012064
399.3349	0.012908
399.5522	0.012381
399.7696	0.014131
399.9869	0.013731
400.2043	0.012296
400.4216	0.014110
400.6390	0.012275
400.8564	0.014490
401.0738	0.013414
401.2912	0.014068
401.5087	0.013710
401.7261	0.013689
401.9436	0.014195
402.1610	0.014174
402.3785	0.014701
402.5960	0.013562
402.8135	0.014237
403.0310	0.013625
403.2486	0.014342
403.4661	0.013435
403.6837	0.013667
403.9013	0.014680
404.1189	0.015376
404.3365	0.016241
404.5541	0.015903
404.7717	0.016241
404.9893	0.017232
405.2070	0.017675
405.4246	0.016409
405.6423	0.018012
405.8600	0.016557
406.0777	0.017422
406.2954	0.018476
406.5131	0.018603
406.7309	0.016536
406.9486	0.016852
407.1664	0.017063
407.3842	0.015734
407.6020	0.016894
407.8198	0.015777
408.0376	0.016979
408.2554	0.017949
408.4733	0.018476
408.6911	0.017928
408.9090	0.019215
409.1269	0.017886
409.3448	0.017527
409.5627	0.018265
409.7806	0.019025
409.9985	0.018076
410.2165	0.018434
410.4344	0.018308
410.6524	0.018708
410.8704	0.018624
411.0884	0.016262
411.3064	0.018497
411.5244	0.017612
411.7424	0.019383
411.9605	0.018033
412.1785	0.018540
412.3966	0.018898
412.6147	0.020311
412.8328	0.018455
413.0509	0.019932
413.2690	0.020079
413.4871	0.019531
413.7053	0.018476
413.9234	0.021387
414.1416	0.019552
414.3598	0.020079
414.5780	0.019362
414.7962	0.018223
415.0144	0.019215
415.2326	0.019826
415.4509	0.018582
415.6692	0.020522
415.8874	0.020037
416.1057	0.020058
416.3240	0.021514
416.5423	0.019362
416.7606	0.019995
416.9790	0.018919
417.1973	0.019805
417.4157	0.020185
417.6341	0.018814
417.8524	0.020269
418.0708	0.020459
418.2893	0.020522
418.5077	0.020881
418.7261	0.019447
418.9446	0.017337
419.1630	0.021176
419.3815	0.019953
419.6000	0.020185
419.8185	0.019784
420.0370	0.020143
420.2555	0.021956
420.4741	0.020649
420.6926	0.021872
420.9112	0.021260
421.1298	0.022125
421.3483	0.024045
421.5669	0.025141
421.7856	0.026533
422.0042	0.025985
422.2228	0.025458
422.4415	0.024804
422.6601	0.023581
422.8788	0.022695
423.0975	0.022969
423.3162	0.022083
423.5349	0.024045
423.7536	0.022252
423.9724	0.022273
424.1911	0.021682
424.4099	0.022652
424.6287	0.020796
424.8475	0.023264
425.0663	0.021324
425.2851	0.020396
425.5039	0.023391
425.7228	0.021028
425.9416	0.020269
426.1605	0.021978
426.3793	0.018202
426.5982	0.019742
426.8171	0.019468
427.0361	0.019320
427.2550	0.024045
427.4739	0.023011
427.6929	0.023243
427.9118	0.023032
428.1308	0.020796
428.3498	0.022674
428.5688	0.020607
428.7878	0.019995
