# Wavelength (nm)	Intensity (a.u.)
197.7802	0.000084
197.9842	-0.001034
198.1882	-0.000380
198.3922	-0.000253
198.5963	0.000232
198.8003	0.000380
199.0044	0.001477
199.2085	-0.000359
199.4126	0.000506
199.6168	-0.001034
199.8209	0.000295
200.0251	0.000232
200.2292	0.000464
200.4334	0.000063
200.6376	0.001561
200.8418	-0.000612
201.0461	-0.000042
201.2503	0.000401
201.4546	0.000591
201.6589	-0.001667
201.8631	0.000211
202.0674	-0.001182
202.2718	0.000591
202.4761	0.001034
202.6805	0.000127
202.8848	0.001350
203.0892	0.000528
203.2936	0.000717
203.4980	0.000211
203.7024	0.000485
203.9069	0.000127
204.1113	-0.000464
204.3158	0.001097
204.5203	0.000528
204.7248	-0.001414
204.9293	-0.000338
205.1338	0.001013
205.3384	-0.000295
205.5430	0.001034
205.7475	-0.000633
205.9521	0.001182
206.1567	-0.000021
206.3614	0.000928
206.5660	0.000317
206.7706	0.000253
206.9753	0.000549
207.1800	-0.000591
207.3847	0.000675
207.5894	-0.001794
207.7941	0.000169
207.9989	-0.000338
208.2036	-0.000739
208.4084	0.000739
208.6132	-0.000739
208.8180	0.001414
209.0228	-0.000971
209.2276	0.000042
209.4325	0.000823
209.6373	0.000359
209.8422	-0.000274
210.0471	0.000760
210.2520	0.001161
210.4569	0.000190
210.6618	-0.000401
210.8668	-0.000338
211.0718	-0.000717
211.2767	0.001224
211.4817	-0.001034
211.6867	0.000633
211.8918	-0.000443
212.0968	-0.000274
212.3018	-0.000084
212.5069	0.000464
212.7120	-0.000232
212.9171	0.000992
213.1222	0.000042
213.3273	0.000211
213.5325	-0.000274
213.7376	-0.001329
213.9428	0.000443
214.1480	0.001372
214.3532	-0.000591
214.5584	-0.000211
214.7636	0.001393
214.9689	-0.000380
215.1741	-0.000443
215.3794	0.001013
215.5847	-0.001477
215.7900	0.000359
215.9953	-0.000338
216.2007	0.000063
216.4060	0.001055
216.6114	-0.000485
216.8168	-0.000717
217.0222	0.000696
217.2276	-0.000654
217.4330	0.000317
217.6384	0.000253
217.8439	-0.000422
218.0494	-0.000696
218.2548	0.000443
218.4603	-0.001287
218.6659	-0.001224
218.8714	-0.000042
219.0769	-0.000760
219.2825	-0.000570
219.4881	0.000506
219.6936	-0.000127
219.8992	0.002068
220.1049	0.000675
220.3105	-0.000042
220.5161	0.000359
220.7218	0.000443
220.9275	-0.000781
221.1332	-0.000422
221.3389	-0.001561
221.5446	0.000570
221.7503	-0.001055
221.9561	0.000380
222.1618	0.000781
222.3676	0.000443
222.5734	0.000739
222.7792	0.001646
222.9850	-0.000211
223.1909	0.000443
223.3967	0.000506
223.6026	0.000928
223.8085	0.000169
224.0144	0.000338
224.2203	0.000211
224.4262	0.000169
224.6322	0.000380
224.8381	-0.000148
225.0441	0.000443
225.2501	0.000232
225.4561	0.000127
225.6621	-0.000106
225.8681	-0.001836
226.0742	0.001245
226.2802	0.000992
226.4863	0.000106
226.6924	-0.000570
226.8985	-0.001097
227.1046	-0.000063
227.3107	0.000506
227.5169	-0.000148
227.7230	-0.000169
227.9292	0.000232
228.1354	0.000739
228.3416	-0.000844
228.5478	0.000928
228.7541	-0.000696
228.9603	-0.000781
229.1666	-0.000253
229.3729	0.002173
229.5791	-0.000190
229.7855	-0.000148
229.9918	-0.000570
230.1981	0.000760
230.4045	0.000971
230.6108	0.000169
230.8172	-0.000106
231.0236	-0.000211
231.2300	-0.000928
231.4364	-0.000211
231.6429	0.000253
231.8493	-0.000274
232.0558	0.000042
232.2623	-0.000570
232.4688	-0.000317
232.6753	0.001983
232.8818	-0.001245
233.0884	0.000443
233.2949	0.000971
233.5015	0.001540
233.7081	0.000317
233.9147	0.000021
234.1213	-0.000781
234.3279	-0.000317
234.5346	0.000042
234.7413	-0.000422
234.9479	-0.000422
235.1546	0.000717
235.3613	0.000506
235.5680	0.001161
235.7748	0.000169
235.9815	0.001751
236.1883	0.000823
236.3951	0.000971
236.6018	0.000000
236.8087	-0.001182
237.0155	0.001962
237.2223	0.000106
237.4292	-0.000148
237.6360	0.001899
237.8429	0.000760
238.0498	0.000633
238.2567	0.000464
238.4636	0.000106
238.6706	-0.002342
238.8775	0.000106
239.0845	-0.000190
239.2915	-0.000528
239.4985	0.000865
239.7055	0.000570
239.9125	-0.000760
240.1195	0.000781
240.3266	0.000464
240.5337	-0.000211
240.7407	0.000084
240.9478	-0.000591
241.1549	0.000084
241.3621	0.000865
241.5692	0.000802
241.7764	-0.000127
241.9835	0.001097
242.1907	0.000907
242.3979	-0.001329
242.6051	-0.000127
242.8124	0.000823
243.0196	0.000127
243.2269	0.000169
243.4341	0.001203
243.6414	-0.001308
243.8487	0.000359
244.0560	-0.000317
244.2634	0.000359
244.4707	-0.000696
244.6781	-0.000338
244.8854	0.001477
245.0928	-0.000317
245.3002	0.000633
245.5076	0.000802
245.7151	0.000084
245.9225	-0.000295
246.1300	-0.001097
246.3375	0.001414
246.5449	0.000021
246.7524	0.000485
246.9600	-0.000380
247.1675	-0.000886
247.3750	-0.000401
247.5826	0.000633
247.7902	0.000823
247.9978	-0.000950
248.2054	-0.000549
248.4130	0.000865
248.6206	-0.000106
248.8283	0.000211
249.0359	0.001625
249.2436	-0.000042
249.4513	0.000359
249.6590	0.000169
249.8667	-0.000907
250.0745	-0.001329
250.2822	-0.000042
250.4900	0.000570
250.6978	0.000127
250.9056	0.000021
251.1134	0.000253
251.3212	0.000317
251.5290	-0.001287
251.7369	-0.000190
251.9447	0.000591
252.1526	-0.000422
252.3605	0.000380
252.5684	0.001076
252.7763	0.003081
252.9843	0.000549
253.1922	0.000063
253.4002	0.000528
253.6082	-0.000401
253.8162	0.000127
254.0242	-0.000528
254.2322	-0.001139
254.4402	-0.000422
254.6483	-0.000063
254.8564	0.000211
255.0644	0.000232
255.2725	-0.000211
255.4806	0.000696
255.6888	0.000295
255.8969	0.000591
256.1051	0.000549
256.3132	0.001266
256.5214	-0.001118
256.7296	-0.000928
256.9378	-0.000295
257.1460	0.001224
257.3543	0.001245
257.5625	0.000506
257.7708	0.000675
257.9791	0.000127
258.1874	-0.000084
258.3957	0.000844
258.6040	-0.000232
258.8124	0.000042
259.0207	0.000084
259.2291	0.000148
259.4375	0.000338
259.6459	0.000000
259.8543	-0.001034
260.0627	0.000169
260.2711	0.000042
260.4796	-0.000907
260.6881	0.000084
260.8965	-0.000084
261.1050	-0.000148
261.3135	0.001372
261.5221	0.000295
261.7306	0.000528
261.9392	-0.000422
262.1477	-0.000506
262.3563	-0.000084
262.5649	0.000907
262.7735	0.000232
262.9822	0.001097
263.1908	-0.000464
263.3995	0.001182
263.6081	0.000971
263.8168	0.000971
264.0255	-0.001161
264.2342	-0.000506
264.4429	0.000971
264.6517	0.000127
264.8604	0.000127
265.0692	0.000211
265.2780	-0.001435
265.4868	0.000739
265.6956	-0.000274
265.9044	0.000380
266.1133	-0.000928
266.3221	-0.000317
266.5310	-0.000106
266.7399	-0.000591
266.9488	0.000675
267.1577	-0.002406
267.3666	-0.000401
267.5755	0.001224
267.7845	-0.000042
267.9935	0.001097
268.2024	0.000000
268.4114	0.000675
268.6205	-0.001477
268.8295	0.000506
269.0385	-0.000485
269.2476	0.000950
269.4566	-0.001224
269.6657	-0.000148
269.8748	-0.000612
270.0839	0.000591
270.2931	-0.000084
270.5022	0.000253
270.7114	-0.000422
270.9205	-0.000021
271.1297	-0.000232
271.3389	0.000021
271.5481	0.000971
271.7573	0.000211
271.9666	-0.000570
272.1758	0.000675
272.3851	-0.000127
272.5944	0.000317
272.8037	0.000084
273.0130	0.000317
273.2223	-0.000106
273.4316	-0.000359
273.6410	0.000190
273.8504	0.000907
274.0597	0.000127
274.2691	-0.000232
274.4785	-0.000950
274.6880	0.001329
274.8974	-0.000886
275.1069	-0.000549
275.3163	0.000633
275.5258	-0.000211
275.7353	0.000633
275.9448	0.000549
276.1543	-0.000570
276.3639	0.001477
276.5734	0.000696
276.7830	0.000000
276.9926	0.000464
277.2022	0.000084
277.4118	-0.000443
277.6214	0.001688
277.8310	-0.000211
278.0407	0.000063
278.2503	-0.000253
278.4600	0.000443
278.6697	0.001076
278.8794	0.000739
279.0891	-0.001477
279.2989	0.000359
279.5086	-0.001393
279.7184	-0.000950
279.9281	-0.000654
280.1379	0.001118
280.3477	-0.000549
280.5576	-0.000063
280.7674	0.000190
280.9772	0.000317
281.1871	-0.000127
281.3970	-0.000338
281.6069	0.002131
281.8168	0.000169
282.0267	-0.001203
282.2366	-0.000443
282.4466	0.001730
282.6565	0.001034
282.8665	0.000021
283.0765	0.000338
283.2865	-0.000106
283.4965	0.000042
283.7065	-0.000464
283.9166	-0.000464
284.1266	-0.001097
284.3367	0.000928
284.5468	0.000084
284.7569	0.000675
284.9670	-0.000190
285.1771	0.001414
285.3873	-0.000464
285.5974	0.001329
285.8076	0.000528
286.0178	0.000971
286.2280	0.001203
286.4382	-0.000338
286.6484	0.000464
286.8587	0.000760
287.0689	-0.000950
287.2792	-0.000401
287.4895	-0.001372
287.6998	0.000063
287.9101	0.000654
288.1204	0.000907
288.3308	0.000992
288.5411	-0.000084
288.7515	-0.000612
288.9619	0.000084
289.1723	0.001266
289.3827	0.000211
289.5931	-0.000823
289.8035	0.001245
290.0140	-0.000549
290.2245	-0.000338
290.4349	-0.000274
290.6454	0.001076
290.8559	-0.000506
291.0665	0.000084
291.2770	-0.000338
291.4875	0.001013
291.6981	0.000190
291.9087	-0.000443
292.1193	-0.000359
292.3299	-0.000359
292.5405	0.000295
292.7511	0.000760
292.9618	-0.000992
293.1724	0.000169
293.3831	-0.001139
293.5938	0.001414
293.8045	-0.000190
294.0152	0.000021
294.2260	0.000274
294.4367	0.000021
294.6475	0.000549
294.8582	-0.000211
295.0690	-0.001287
295.2798	-0.000549
295.4906	-0.000549
295.7015	0.000802
295.9123	0.000443
296.1232	0.000084
296.3340	-0.000823
296.5449	0.000464
296.7558	0.000865
296.9667	0.000485
297.1777	-0.000063
297.3886	-0.000844
297.5995	-0.000042
297.8105	0.001224
298.0215	-0.000380
298.2325	0.001097
298.4435	-0.000169
298.6545	0.000211
298.8656	-0.000380
299.0766	0.000148
299.2877	-0.000295
299.4988	0.000295
299.7099	-0.000781
299.9210	0.000570
300.1321	-0.001034
300.3432	0.000232
300.5544	0.000359
300.7655	0.001372
300.9767	-0.000971
301.1879	0.000211
301.3991	-0.000570
301.6103	-0.000696
301.8215	-0.000190
302.0328	0.001076
302.2441	-0.000570
302.4553	-0.000148
302.6666	0.000654
302.8779	0.002195
303.0892	-0.001815
303.3006	0.000021
303.5119	0.000485
303.7233	-0.000886
303.9346	0.000000
304.1460	0.000401
304.3574	-0.000612
304.5688	-0.000042
304.7803	-0.000549
304.9917	-0.000190
305.2031	-0.000190
305.4146	0.000992
305.6261	0.000781
305.8376	0.000063
306.0491	-0.001097
306.2606	-0.000106
306.4722	0.000464
306.6837	-0.000042
306.8953	0.000823
307.1069	0.000570
307.3184	-0.000380
307.5301	0.001118
307.7417	0.000148
307.9533	0.000633
308.1650	-0.000591
308.3766	-0.000127
308.5883	0.000127
308.8000	-0.000380
309.0117	-0.000950
309.2234	0.000084
309.4351	0.000359
309.6469	0.001583
309.8586	-0.001688
310.0704	0.001329
310.2822	0.000063
310.4940	0.000042
310.7058	-0.000549
310.9176	-0.000127
311.1295	-0.000844
311.3413	0.001076
311.5532	0.000295
311.7651	0.000084
311.9770	0.000823
312.1889	0.000464
312.4008	-0.000570
312.6127	0.000190
312.8247	0.000169
313.0366	0.000717
313.2486	-0.000042
313.4606	0.000317
313.6726	-0.000127
313.8846	0.001139
314.0967	-0.000021
314.3087	0.000338
314.5208	0.000823
314.7328	-0.000696
314.9449	-0.000148
315.1570	0.001667
315.3692	-0.000042
315.5813	0.001583
315.7934	0.001372
316.0056	0.000169
316.2177	0.000886
316.4299	-0.000717
316.6421	-0.000717
316.8543	-0.000401
317.0666	-0.000021
317.2788	0.001372
317.4911	-0.000654
317.7033	-0.001034
317.9156	0.000359
318.1279	0.000338
318.3402	-0.000612
318.5525	-0.000802
318.7649	-0.000781
318.9772	0.000739
319.1896	0.001034
319.4019	-0.000042
319.6143	-0.000950
319.8267	0.001055
320.0392	-0.000106
320.2516	0.000781
320.4640	-0.000464
320.6765	0.000359
320.8890	0.000084
321.1014	-0.000675
321.3139	-0.000042
321.5265	0.001097
321.7390	0.001561
321.9515	0.000654
322.1641	0.000000
322.3766	0.000338
322.5892	0.000506
322.8018	0.001139
323.0144	0.000148
323.2270	0.000443
323.4397	0.000211
323.6523	0.000169
323.8650	-0.000570
324.0777	0.001287
324.2904	-0.000359
324.5031	0.000971
324.7158	0.000633
324.9285	-0.000928
325.1412	-0.000506
325.3540	0.000992
325.5668	-0.000633
325.7796	0.000401
325.9924	0.000084
326.2052	0.000253
326.4180	-0.001139
326.6308	0.000211
326.8437	0.000886
327.0566	0.000950
327.2694	0.001941
327.4823	-0.000106
327.6952	-0.001329
327.9082	0.000401
328.1211	0.001203
328.3340	0.000359
328.5470	-0.000549
328.7600	0.001245
328.9730	-0.000211
329.1860	-0.000570
329.3990	0.000485
329.6120	-0.000886
329.8251	-0.000148
330.0381	0.000317
330.2512	-0.000781
330.4643	0.001203
330.6774	-0.000359
330.8905	0.000169
331.1036	0.000865
331.3167	-0.000506
331.5299	-0.000084
331.7431	-0.000823
331.9562	0.000063
332.1694	0.000781
332.3826	-0.000971
332.5959	-0.000232
332.8091	0.000781
333.0223	0.001245
333.2356	-0.001266
333.4489	0.000506
333.6622	0.001646
333.8755	-0.001118
334.0888	0.000106
334.3021	-0.000717
334.5154	-0.000886
334.7288	0.000380
334.9422	-0.000950
335.1555	0.001393
335.3689	-0.000823
335.5823	0.001329
335.7958	0.001414
336.0092	-0.000506
336.2227	0.000760
336.4361	-0.000907
336.6496	-0.000886
336.8631	0.000612
337.0766	0.000127
337.2901	-0.001350
337.5036	-0.000443
337.7172	-0.000696
337.9307	-0.000928
338.1443	0.000127
338.3579	-0.001941
338.5715	0.000380
338.7851	0.000274
338.9987	-0.000739
339.2124	-0.001393
339.4260	-0.000063
339.6397	-0.001076
339.8533	-0.000084
340.0670	-0.000802
340.2807	0.000127
340.4945	0.000612
340.7082	0.000106
340.9219	-0.000084
341.1357	-0.000443
341.3495	0.000084
341.5633	0.000591
341.7771	-0.000633
341.9909	0.000675
342.2047	-0.000865
342.4185	-0.000570
342.6324	-0.000844
342.8463	-0.000295
343.0601	0.001646
343.2740	-0.000633
343.4879	-0.000380
343.7019	-0.000359
343.9158	0.000063
344.1297	0.000696
344.3437	-0.000148
344.5577	-0.000232
344.7717	0.000928
344.9857	0.000781
345.1997	-0.000823
345.4137	0.000823
345.6277	0.000865
345.8418	0.000443
346.0559	0.000232
346.2699	0.000992
346.4840	-0.000169
346.6981	-0.000359
346.9123	0.001097
347.1264	-0.000148
347.3406	-0.000992
347.5547	-0.000127
347.7689	0.000950
347.9831	0.000106
348.1973	-0.000654
348.4115	0.000148
348.6257	0.000528
348.8400	0.000359
349.0542	-0.000169
349.2685	0.000274
349.4828	0.000802
349.6971	-0.000211
349.9114	0.000464
350.1257	0.000612
350.3400	0.000464
350.5544	-0.000232
350.7687	0.000295
350.9831	0.000633
351.1975	-0.000696
351.4119	0.000760
351.6263	0.000654
351.8407	0.001161
352.0552	0.001224
352.2696	0.000696
352.4841	0.000760
352.6986	0.001308
352.9131	0.000190
353.1276	-0.000021
353.3421	-0.000274
353.5566	0.001139
353.7712	-0.002005
353.9858	-0.000084
354.2003	-0.000063
354.4149	0.001815
354.6295	0.000633
354.8441	0.000907
355.0588	-0.000106
355.2734	0.000232
355.4881	0.000506
355.7027	-0.000485
355.9174	-0.000950
356.1321	0.001139
356.3468	0.000253
356.5615	0.000422
356.7763	-0.000506
356.9910	0.000633
357.2058	-0.000042
357.4206	0.000464
357.6353	-0.000021
357.8501	-0.000844
358.0650	0.000042
358.2798	0.000295
358.4946	-0.000169
358.7095	0.000528
358.9243	-0.000127
359.1392	0.000042
359.3541	-0.000042
359.5690	0.000042
359.7839	0.000612
359.9989	-0.000717
360.2138	0.001013
360.4288	0.000464
360.6438	-0.000190
360.8587	0.000000
361.0737	-0.000528
361.2888	0.000506
361.5038	-0.001350
361.7188	0.000485
361.9339	-0.000696
362.1489	0.001034
362.3640	-0.000063
362.5791	-0.000464
362.7942	-0.000274
363.0093	0.000696
363.2245	0.001224
363.4396	0.000506
363.6548	-0.000717
363.8699	0.000169
364.0851	0.001372
364.3003	0.000549
364.5155	-0.000084
364.7308	0.000696
364.9460	0.000084
365.1612	0.000907
365.3765	-0.001899
365.5918	0.000148
365.8071	-0.001561
366.0224	0.000823
366.2377	0.000127
366.4530	-0.000422
366.6684	0.001414
366.8837	-0.000401
367.0991	0.000464
367.3145	0.000950
367.5299	-0.000359
367.7453	0.001097
367.9607	0.000781
368.1761	-0.000971
368.3916	0.001076
368.6070	-0.000506
368.8225	-0.000359
369.0380	-0.000570
369.2535	-0.000443
369.4690	0.000549
369.6845	-0.000675
369.9001	0.000591
370.1156	0.000443
370.3312	0.001287
370.5468	0.000295
370.7624	0.000084
370.9780	0.000633
371.1936	0.000000
371.4092	-0.000317
371.6249	0.000696
371.8405	0.001519
372.0562	0.000464
372.2719	-0.000338
372.4876	0.000359
372.7033	-0.000696
372.9190	0.001604
373.1348	-0.000253
373.3505	0.000971
373.5663	0.000380
373.7820	0.000359
373.9978	0.000781
374.2136	0.000127
374.4294	0.000190
374.6453	0.000338
374.8611	-0.000317
375.0770	0.000992
375.2928	-0.000127
375.5087	0.000633
375.7246	0.000317
375.9405	0.001076
376.1564	0.000190
376.3724	0.000401
376.5883	0.000338
376.8043	0.000422
377.0203	-0.000802
377.2362	0.000401
377.4522	0.000506
377.6682	0.000317
377.8843	0.000232
378.1003	0.000971
378.3164	0.000506
378.5324	0.000295
378.7485	0.000886
378.9646	0.000549
379.1807	-0.000570
379.3968	-0.000844
379.6129	-0.001540
379.8291	0.000781
380.0452	-0.000506
380.2614	0.001139
380.4776	0.000380
380.6938	0.000380
380.9100	-0.000106
381.1262	-0.000274
381.3424	0.000464
381.5587	0.001751
381.7749	-0.000528
381.9912	0.000950
382.2075	0.001561
382.4238	0.000781
382.6401	0.000570
382.8564	-0.001287
383.0728	-0.001815
383.2891	0.000485
383.5055	0.000781
383.7219	0.000211
383.9382	-0.001182
384.1546	-0.000506
384.3711	-0.000084
384.5875	0.000549
384.8039	0.000485
385.0204	0.000591
385.2368	0.000802
385.4533	-0.000084
385.6698	-0.000148
385.8863	0.001646
386.1028	0.000506
386.3194	0.000422
386.5359	0.001477
386.7525	-0.001203
386.9690	0.000485
387.1856	0.000148
387.4022	-0.000675
387.6188	-0.001224
387.8355	0.000380
388.0521	0.000127
388.2687	-0.000654
388.4854	0.001857
388.7021	0.000317
388.9188	-0.000274
389.1355	-0.000295
389.3522	0.001266
389.5689	0.000380
389.7856	-0.000591
390.0024	0.001308
390.2192	0.001224
390.4359	0.000886
390.6527	0.000464
390.8695	-0.000295
391.0863	0.000928
391.3032	0.000443
391.5200	0.001203
391.7369	0.000506
391.9537	0.001055
392.1706	0.001498
392.3875	0.000274
392.6044	0.000253
392.8213	0.002490
393.0383	0.000570
393.2552	0.000106
393.4722	0.001941
393.6891	0.000127
393.9061	0.002173
394.1231	0.001857
394.3401	-0.000886
394.5572	0.001372
394.7742	0.000084
394.9912	0.001583
395.2083	0.001667
395.4254	0.002110
395.6425	0.001625
395.8596	0.001794
396.0767	0.001456
396.2938	0.002427
396.5109	0.001245
396.7281	0.001055
396.9453	0.001941
397.1624	0.002300
397.3796	0.002511
397.5968	0.002617
397.8140	0.002068
398.0313	0.001794
398.2485	0.001329
398.4658	0.003925
398.6830	0.003819
398.9003	0.002089
399.1176	0.002806
399.3349	0.003123
399.5522	0.003461
399.7696	0.004410
399.9869	0.003418
400.2043	0.002849
400.4216	0.003798
400.6390	0.002553
400.8564	0.003756
401.0738	0.003355
401.2912	0.003840
401.5087	0.003650
401.7261	0.004727
401.9436	0.004241
402.1610	0.004094
402.3785	0.003482
402.5960	0.004621
402.8135	0.004558
403.0310	0.003756
403.2486	0.003186
403.4661	0.003946
403.6837	0.007048
403.9013	0.004495
404.1189	0.005001
404.3365	0.002954
404.5541	0.005634
404.7717	0.006183
404.9893	0.004136
405.2070	0.004769
405.4246	0.005381
405.6423	0.005908
405.8600	0.005782
406.0777	0.005824
406.2954	0.005718
406.5131	0.006014
406.7309	0.005676
406.9486	0.005381
407.1664	0.005550
407.3842	0.005824
407.6020	0.004157
407.8198	0.006098
408.0376	0.005803
408.2554	0.008272
408.4733	0.007955
408.6911	0.008293
408.9090	0.006668
409.1269	0.006942
409.3448	0.005824
409.5627	0.006246
409.7806	0.006731
409.9985	0.006267
410.2165	0.006541
410.4344	0.007850
410.6524	0.006963
410.8704	0.007428
411.0884	0.007153
411.3064	0.007554
411.5244	0.007575
411.7424	0.008483
411.9605	0.006921
412.1785	0.009031
412.3966	0.008504
412.6147	0.008293
412.8328	0.008926
413.0509	0.007913
413.2690	0.006921
413.4871	0.009221
413.7053	0.008208
413.9234	0.009179
414.1416	0.009137
414.3598	0.009622
414.5780	0.007090
414.7962	0.009875
415.0144	0.009095
415.2326	0.009306
415.4509	0.008715
415.6692	0.007934
415.8874	0.009770
416.1057	0.008483
416.3240	0.010276
416.5423	0.010086
416.7606	0.009728
416.9790	0.010318
417.1973	0.008905
417.4157	0.010403
417.6341	0.010804
417.8524	0.009875
418.0708	0.009263
418.2893	0.010065
418.5077	0.011141
418.7261	0.012555
418.9446	0.011627
419.1630	0.011817
419.3815	0.011120
419.6000	0.011795
419.8185	0.012471
420.0370	0.011985
420.2555	0.012597
420.4741	0.012386
420.6926	0.013378
420.9112	0.012492
421.1298	0.014897
421.3483	0.013800
421.5669	0.013779
421.7856	0.015362
422.0042	0.014412
422.2228	0.014370
422.4415	0.014644
422.6601	0.015446
422.8788	0.014096
423.0975	0.015108
423.3162	0.014222
423.5349	0.013230
423.7536	0.013779
423.9724	0.014159
424.1911	0.013209
424.4099	0.014940
424.6287	0.013040
424.8475	0.014032
425.0663	0.013526
425.2851	0.015847
425.5039	0.013927
425.7228	0.012365
425.9416	0.012640
426.1605	0.012218
426.3793	0.012112
426.5982	0.013927
426.8171	0.013863
427.0361	0.012260
427.2550	0.015108
427.4739	0.012956
427.6929	0.015425
