# Wavelength (nm)	Intensity (a.u.)
197.7802	0.000809
197.9842	0.000703
198.1882	0.000703
198.3922	0.000408
198.5963	-0.000647
198.8003	-0.000499
199.0044	-0.000394
199.2085	0.000197
199.4126	-0.001238
199.6168	-0.000035
199.8209	0.000070
200.0251	0.000028
200.2292	0.000745
200.4334	0.000070
200.6376	-0.000605
200.8418	0.001210
201.0461	-0.000689
201.2503	0.000872
201.4546	0.000999
201.6589	-0.001153
201.8631	-0.000035
202.0674	0.000155
202.2718	0.001821
202.4761	0.000851
202.6805	-0.000120
202.8848	-0.000035
203.0892	0.000661
203.2936	-0.000141
203.4980	0.000155
203.7024	-0.000478
203.9069	-0.000098
204.1113	-0.001575
204.3158	0.000197
204.5203	-0.000204
204.7248	0.000809
204.9293	-0.000183
205.1338	-0.000331
205.3384	0.000534
205.5430	0.000893
205.7475	-0.000204
205.9521	-0.000267
206.1567	0.000281
206.3614	-0.000141
206.5660	-0.001533
206.7706	0.000724
206.9753	0.000239
207.1800	0.001041
207.3847	0.000070
207.5894	-0.000056
207.7941	0.000260
207.9989	-0.000141
208.2036	0.001167
208.4084	-0.000309
208.6132	-0.001744
208.8180	0.000809
209.0228	-0.000984
209.2276	0.000134
209.4325	-0.001449
209.6373	0.000176
209.8422	0.000113
210.0471	0.000113
210.2520	0.001294
210.4569	-0.001069
210.6618	-0.000478
210.8668	-0.000795
211.0718	0.000534
211.2767	0.000134
211.4817	0.000281
211.6867	0.000218
211.8918	0.000429
212.0968	0.000387
212.3018	0.000640
212.5069	-0.001259
212.7120	-0.000795
212.9171	0.000893
213.1222	-0.000963
213.3273	0.000745
213.5325	-0.000499
213.7376	-0.000098
213.9428	0.000640
214.1480	0.001463
214.3532	0.000471
214.5584	-0.000647
214.7636	-0.000499
214.9689	-0.001027
215.1741	0.000556
215.3794	0.000534
215.5847	0.000766
215.7900	-0.000288
215.9953	0.000872
216.2007	-0.000056
216.4060	0.000745
216.6114	0.000028
216.8168	0.000809
217.0222	-0.000183
217.2276	0.000640
217.4330	0.001231
217.6384	-0.000626
217.8439	0.000302
218.0494	-0.000120
218.2548	-0.000520
218.4603	0.000471
218.6659	0.000197
218.8714	0.000619
219.0769	0.001231
219.2825	-0.000183
219.4881	0.000745
219.6936	-0.000752
219.8992	0.000450
220.1049	-0.000626
220.3105	-0.000752
220.5161	0.000197
220.7218	0.000007
220.9275	-0.000225
221.1332	0.000492
221.3389	0.000935
221.5446	0.000914
221.7503	-0.001006
221.9561	-0.000626
222.1618	0.000176
222.3676	0.000619
222.5734	0.000070
222.7792	0.001146
222.9850	0.000281
223.1909	0.000028
223.3967	-0.000225
223.6026	-0.001132
223.8085	-0.001280
224.0144	0.000914
224.2203	0.000176
224.4262	-0.000309
224.6322	0.000661
224.8381	-0.000056
225.0441	-0.000520
225.2501	0.001589
225.4561	-0.000541
225.6621	0.000197
225.8681	-0.000774
226.0742	-0.001470
226.2802	-0.001153
226.4863	-0.001153
226.6924	0.000197
226.8985	0.000640
227.1046	-0.000457
227.3107	-0.001470
227.5169	0.000049
227.7230	-0.000563
227.9292	-0.000204
228.1354	0.000408
228.3416	0.000028
228.5478	0.000577
228.7541	-0.000331
228.9603	0.000872
229.1666	0.000091
229.3729	0.000956
229.5791	0.000028
229.7855	0.000218
229.9918	0.000956
230.1981	-0.000141
230.4045	-0.001132
230.6108	0.002560
230.8172	0.000935
231.0236	0.002011
231.2300	-0.000499
231.4364	0.000366
231.6429	0.000070
231.8493	0.000661
232.0558	0.000577
232.2623	0.000830
232.4688	0.000387
232.6753	0.000661
232.8818	0.000809
233.0884	0.001589
233.2949	0.000387
233.5015	0.000366
233.7081	-0.000563
233.9147	0.000956
234.1213	-0.000098
234.3279	-0.000056
234.5346	0.000387
234.7413	0.000872
234.9479	0.000872
235.1546	0.001125
235.3613	0.001146
235.5680	0.000471
235.7748	-0.000478
235.9815	-0.000120
236.1883	0.000450
236.3951	0.000851
236.6018	0.000176
236.8087	0.000513
237.0155	-0.000457
237.2223	0.001927
237.4292	0.000366
237.6360	0.000302
237.8429	-0.001111
238.0498	0.000703
238.2567	-0.000098
238.4636	0.000703
238.6706	0.000640
238.8775	0.000872
239.0845	-0.001702
239.2915	0.000387
239.4985	-0.001406
239.7055	0.001484
239.9125	-0.000478
240.1195	0.000745
240.3266	0.000113
240.5337	0.001378
240.7407	-0.000837
240.9478	0.000429
241.1549	-0.000331
241.3621	0.001399
241.5692	-0.000774
241.7764	0.002581
241.9835	0.001273
242.1907	0.000999
242.3979	0.000682
242.6051	-0.000035
242.8124	0.000028
243.0196	0.000408
243.2269	-0.000204
243.4341	0.000239
243.6414	0.000703
243.8487	-0.001385
244.0560	-0.000014
244.2634	0.000302
244.4707	-0.000774
244.6781	0.000661
244.8854	0.000345
245.0928	0.001020
245.3002	-0.001048
245.5076	0.000197
245.7151	0.000492
245.9225	-0.000120
246.1300	-0.000689
246.3375	0.000260
246.5449	-0.000394
246.7524	0.000556
246.9600	-0.000563
247.1675	-0.000056
247.3750	-0.000647
247.5826	0.000661
247.7902	-0.000478
247.9978	0.001568
248.2054	0.000260
248.4130	0.000387
248.6206	-0.001997
248.8283	-0.000331
249.0359	-0.000626
249.2436	-0.000394
249.4513	0.000766
249.6590	0.000408
249.8667	-0.000710
250.0745	0.000239
250.2822	-0.000373
250.4900	-0.000141
250.6978	-0.000014
250.9056	0.000513
251.1134	-0.000963
251.3212	-0.000120
251.5290	-0.000879
251.7369	-0.000541
251.9447	0.000534
252.1526	0.000682
252.3605	-0.000162
252.5684	0.000323
252.7763	-0.000352
252.9843	-0.000837
253.1922	-0.001449
253.4002	0.000893
253.6082	-0.000668
253.8162	-0.000204
254.0242	0.000176
254.2322	0.000260
254.4402	-0.000098
254.6483	-0.000120
254.8564	0.000556
255.0644	0.000471
255.2725	-0.000204
255.4806	0.000872
255.6888	0.001294
255.8969	-0.000689
256.1051	0.000091
256.3132	0.000745
256.5214	0.001758
256.7296	0.000513
256.9378	-0.000014
257.1460	0.001463
257.3543	-0.000183
257.5625	0.000577
257.7708	-0.000816
257.9791	0.001547
258.1874	-0.000520
258.3957	0.000788
258.6040	-0.000605
258.8124	0.000619
259.0207	0.001020
259.2291	-0.000394
259.4375	-0.000204
259.6459	-0.001069
259.8543	-0.000816
260.0627	0.000260
260.2711	-0.001174
260.4796	0.000429
260.6881	0.000091
260.8965	0.001104
261.1050	0.001631
261.3135	-0.000246
261.5221	-0.000246
261.7306	0.001083
261.9392	0.000007
262.1477	-0.000225
262.3563	-0.000352
262.5649	0.000766
262.7735	0.001231
262.9822	0.000893
263.1908	-0.000225
263.3995	0.000155
263.6081	0.000556
263.8168	0.000218
264.0255	-0.000225
264.2342	0.001505
264.4429	-0.000858
264.6517	0.000345
264.8604	0.001210
265.0692	0.001526
265.2780	0.000323
265.4868	-0.000373
265.6956	-0.001660
265.9044	0.001399
266.1133	-0.001470
266.3221	0.000134
266.5310	-0.000921
266.7399	0.001062
266.9488	0.000366
267.1577	0.000830
267.3666	0.000830
267.5755	0.000513
267.7845	-0.000288
267.9935	-0.000563
268.2024	-0.000056
268.4114	0.000176
268.6205	-0.000858
268.8295	0.001231
269.0385	-0.000626
269.2476	0.001758
269.4566	-0.000520
269.6657	-0.000056
269.8748	-0.000373
270.0839	-0.000014
270.2931	0.000513
270.5022	0.000302
270.7114	-0.001575
270.9205	0.000619
271.1297	-0.000795
271.3389	0.000239
271.5481	0.000556
271.7573	0.000281
271.9666	-0.001027
272.1758	0.000745
272.3851	-0.001364
272.5944	-0.000267
272.8037	0.000070
273.0130	0.001716
273.2223	0.000492
273.4316	-0.000352
273.6410	0.000197
273.8504	-0.000373
274.0597	-0.000689
274.2691	0.000534
274.4785	-0.000183
274.6880	0.000239
274.8974	-0.000963
275.1069	-0.000225
275.3163	0.000366
275.5258	0.001863
275.7353	0.000956
275.9448	0.000366
276.1543	-0.000436
276.3639	0.000134
276.5734	0.001526
276.7830	-0.001027
276.9926	0.000640
277.2022	0.000197
277.4118	0.000091
277.6214	0.000661
277.8310	-0.000605
278.0407	0.000007
278.2503	0.000366
278.4600	-0.000098
278.6697	-0.001512
278.8794	-0.000731
279.0891	0.001547
279.2989	-0.000352
279.5086	-0.000499
279.7184	0.000577
279.9281	-0.000204
280.1379	-0.000478
280.3477	0.000619
280.5576	-0.000014
280.7674	0.000872
280.9772	-0.000331
281.1871	0.000387
281.3970	-0.001533
281.6069	-0.000605
281.8168	0.000197
282.0267	-0.000267
282.2366	0.000028
282.4466	-0.000879
282.6565	-0.000098
282.8665	-0.001301
283.0765	0.000408
283.2865	-0.000605
283.4965	0.000113
283.7065	-0.000605
283.9166	0.000534
284.1266	0.001463
284.3367	0.001315
284.5468	-0.000394
284.7569	0.000809
284.9670	-0.000900
285.1771	0.001906
285.3873	0.000914
285.5974	0.000577
285.8076	-0.000288
286.0178	0.000323
286.2280	0.001083
286.4382	-0.000520
286.6484	0.000197
286.8587	0.001631
287.0689	-0.000942
287.2792	0.000028
287.4895	-0.000774
287.6998	0.000155
287.9101	-0.000225
288.1204	-0.000520
288.3308	-0.000267
288.5411	0.000999
288.7515	-0.000309
288.9619	0.001589
289.1723	0.000513
289.3827	-0.001385
289.5931	0.000471
289.8035	-0.000225
290.0140	-0.001132
290.2245	0.000049
290.4349	0.000113
290.6454	0.000513
290.8559	0.000872
291.0665	-0.000584
291.2770	-0.000415
291.4875	-0.000098
291.6981	0.000598
291.9087	-0.000520
292.1193	-0.001364
292.3299	0.000640
292.5405	-0.000309
292.7511	-0.000499
292.9618	-0.000183
293.1724	0.000999
293.3831	0.001146
293.5938	-0.000394
293.8045	-0.001217
294.0152	0.000323
294.2260	-0.000225
294.4367	-0.000415
294.6475	-0.000035
294.8582	-0.000647
295.0690	0.000028
295.2798	0.000661
295.4906	-0.001069
295.7015	0.001041
295.9123	0.000914
296.1232	0.000345
296.3340	0.000049
296.5449	-0.000098
296.7558	0.001020
296.9667	-0.000056
297.1777	0.000070
297.3886	0.000661
297.5995	-0.000436
297.8105	0.000091
298.0215	0.000134
298.2325	0.000302
298.4435	-0.000731
298.6545	-0.000541
298.8656	0.000450
299.0766	-0.001470
299.2877	-0.000204
299.4988	0.000893
299.7099	0.000935
299.9210	0.001020
300.1321	-0.000373
300.3432	-0.000204
300.5544	-0.001217
300.7655	-0.000499
300.9767	-0.000520
301.1879	0.001104
301.3991	-0.000774
301.6103	-0.000647
301.8215	0.000513
302.0328	-0.000541
302.2441	0.000028
302.4553	0.000323
302.6666	0.000302
302.8779	-0.000056
303.0892	-0.000288
303.3006	-0.000689
303.5119	0.000408
303.7233	-0.000309
303.9346	-0.001111
304.1460	-0.000499
304.3574	0.001336
304.5688	0.000260
304.7803	0.000091
304.9917	0.001336
305.2031	-0.000098
305.4146	-0.000668
305.6261	-0.000689
305.8376	-0.000204
306.0491	-0.001849
306.2606	0.000218
306.4722	0.000450
306.6837	0.001020
306.8953	0.001125
307.1069	0.000893
307.3184	-0.000436
307.5301	0.000492
307.7417	0.000429
307.9533	-0.000035
308.1650	0.001505
308.3766	0.000872
308.5883	0.000682
308.8000	0.000471
309.0117	0.000788
309.2234	0.001252
309.4351	0.000091
309.6469	0.000830
309.8586	-0.002503
310.0704	0.000788
310.2822	-0.000183
310.4940	0.000914
310.7058	-0.000478
310.9176	-0.000584
311.1295	-0.000309
311.3413	0.000176
311.5532	-0.000267
311.7651	-0.001807
311.9770	0.000956
312.1889	0.001378
312.4008	0.000366
312.6127	0.001948
312.8247	0.000788
313.0366	0.000239
313.2486	-0.000921
313.4606	0.000745
313.6726	-0.001006
313.8846	0.000366
314.0967	0.000007
314.3087	0.001463
314.5208	-0.000162
314.7328	-0.000563
314.9449	0.000281
315.1570	0.000577
315.3692	-0.001006
315.5813	0.000387
315.7934	0.000302
316.0056	0.000534
316.2177	0.000619
316.4299	-0.000816
316.6421	-0.000541
316.8543	0.000977
317.0666	-0.000752
317.2788	0.000682
317.4911	0.001146
317.7033	0.000429
317.9156	-0.000225
318.1279	0.000366
318.3402	0.001041
318.5525	-0.000120
318.7649	-0.000183
318.9772	-0.000225
319.1896	0.000556
319.4019	0.000049
319.6143	0.000387
319.8267	0.001083
320.0392	-0.001132
320.2516	-0.000541
320.4640	-0.000752
320.6765	0.000260
320.8890	0.000134
321.1014	0.000492
321.3139	0.000387
321.5265	-0.000689
321.7390	-0.001153
321.9515	0.000366
322.1641	0.000260
322.3766	0.000598
322.5892	-0.000288
322.8018	0.000471
323.0144	0.000345
323.2270	-0.000436
323.4397	-0.000225
323.6523	0.001547
323.8650	-0.000056
324.0777	0.000408
324.2904	-0.001217
324.5031	-0.000984
324.7158	0.001589
324.9285	0.000091
325.1412	-0.000309
325.3540	0.000745
325.5668	-0.001090
325.7796	0.000999
325.9924	0.001420
326.2052	0.001125
326.4180	0.000028
326.6308	0.000113
326.8437	-0.000331
327.0566	0.000070
327.2694	-0.000394
327.4823	0.000956
327.6952	0.000534
327.9082	0.000893
328.1211	0.000724
328.3340	0.000028
328.5470	-0.000563
328.7600	0.000830
328.9730	0.000281
329.1860	0.000049
329.3990	0.000534
329.6120	-0.000478
329.8251	0.000197
330.0381	0.000999
330.2512	0.000872
330.4643	0.000176
330.6774	0.000239
330.8905	0.000745
331.1036	-0.000014
331.3167	0.000619
331.5299	0.000091
331.7431	0.000450
331.9562	-0.000731
332.1694	-0.000731
332.3826	-0.000710
332.5959	-0.000288
332.8091	0.000598
333.0223	0.000302
333.2356	0.000091
333.4489	0.000239
333.6622	0.000218
333.8755	0.000577
334.0888	0.000028
334.3021	-0.001027
334.5154	-0.000204
334.7288	0.000492
334.9422	-0.000563
335.1555	-0.000077
335.3689	0.000703
335.5823	0.000450
335.7958	-0.000436
336.0092	-0.000563
336.2227	0.000471
336.4361	0.001041
336.6496	0.000197
336.8631	-0.000541
337.0766	0.000492
337.2901	-0.000331
337.5036	-0.000626
337.7172	-0.000436
337.9307	-0.000288
338.1443	-0.000309
338.3579	-0.000541
338.5715	0.000914
338.7851	-0.001280
338.9987	0.000155
339.2124	-0.000626
339.4260	-0.000098
339.6397	-0.000394
339.8533	-0.000035
340.0670	-0.001259
340.2807	0.001210
340.4945	-0.000373
340.7082	0.000724
340.9219	-0.000752
341.1357	-0.000963
341.3495	0.001104
341.5633	0.000703
341.7771	-0.000900
341.9909	0.000218
342.2047	-0.000373
342.4185	0.001125
342.6324	0.001378
342.8463	0.000049
343.0601	-0.000563
343.2740	0.000577
343.4879	-0.001470
343.7019	0.000956
343.9158	-0.002208
344.1297	-0.000056
344.3437	-0.000014
344.5577	-0.000183
344.7717	-0.000162
344.9857	0.000703
345.1997	-0.000120
345.4137	0.000640
345.6277	-0.000373
345.8418	-0.000309
346.0559	-0.000183
346.2699	0.000956
346.4840	0.000049
346.6981	-0.000309
346.9123	0.000745
347.1264	-0.000267
347.3406	0.000197
347.5547	-0.000204
347.7689	-0.000478
347.9831	0.001695
348.1973	0.000408
348.4115	0.000028
348.6257	-0.000352
348.8400	0.000788
349.0542	-0.000436
349.2685	0.001188
349.4828	0.000577
349.6971	0.001378
349.9114	-0.000647
350.1257	0.000977
350.3400	0.000155
350.5544	-0.000056
350.7687	0.001294
350.9831	0.000745
351.1975	-0.000879
351.4119	0.001231
351.6263	-0.000541
351.8407	0.000323
352.0552	-0.000077
352.2696	0.001948
352.4841	0.000113
352.6986	0.000450
352.9131	0.000703
353.1276	0.000366
353.3421	-0.000816
353.5566	0.001252
353.7712	-0.000120
353.9858	0.000218
354.2003	-0.000056
354.4149	0.000703
354.6295	0.000619
354.8441	-0.000225
355.0588	0.000598
355.2734	0.000788
355.4881	-0.001048
355.7027	0.000408
355.9174	0.000049
356.1321	0.000028
356.3468	-0.000373
356.5615	0.000007
356.7763	0.000450
356.9910	-0.000436
357.2058	0.001041
357.4206	0.000408
357.6353	0.000450
357.8501	-0.000858
358.0650	-0.000373
358.2798	0.000640
358.4946	0.001336
358.7095	0.000534
358.9243	-0.000141
359.1392	0.001779
359.3541	0.000619
359.5690	0.000408
359.7839	-0.000267
359.9989	0.000766
360.2138	0.001146
360.4288	0.000492
360.6438	0.000134
360.8587	0.000492
361.0737	0.000007
361.2888	-0.001660
361.5038	-0.001449
361.7188	0.000977
361.9339	-0.000141
362.1489	0.000682
362.3640	0.000598
362.5791	0.000766
362.7942	-0.000436
363.0093	-0.000457
363.2245	0.000577
363.4396	-0.000056
363.6548	0.000028
363.8699	-0.000837
364.0851	-0.000373
364.3003	0.000977
364.5155	-0.000541
364.7308	-0.000162
364.9460	0.001294
365.1612	0.001315
365.3765	-0.000352
365.5918	-0.000267
365.8071	-0.000056
366.0224	-0.000352
366.2377	-0.000204
366.4530	0.000218
366.6684	-0.000246
366.8837	0.000745
367.0991	0.000492
367.3145	0.001231
367.5299	-0.000309
367.7453	0.001526
367.9607	0.000176
368.1761	-0.000246
368.3916	-0.000183
368.6070	-0.000309
368.8225	0.000577
369.0380	-0.000141
369.2535	0.000218
369.4690	0.000745
369.6845	0.000492
369.9001	0.001863
370.1156	-0.000225
370.3312	0.001188
370.5468	0.000070
370.7624	0.001252
370.9780	0.000176
371.1936	-0.001048
371.4092	0.000429
371.6249	0.001188
371.8405	-0.000288
372.0562	-0.000710
372.2719	0.000766
372.4876	0.001315
372.7033	-0.000563
372.9190	0.000724
373.1348	0.000872
373.3505	0.000492
373.5663	0.001210
373.7820	0.000345
373.9978	-0.000984
374.2136	-0.000816
374.4294	0.000345
374.6453	-0.000183
374.8611	0.000534
375.0770	0.000007
375.2928	0.000661
375.5087	0.000049
375.7246	-0.000858
375.9405	0.000007
376.1564	-0.000035
376.3724	-0.000183
376.5883	0.000387
376.8043	-0.000879
377.0203	-0.000541
377.2362	0.000661
377.4522	0.000049
377.6682	0.001083
377.8843	-0.000520
378.1003	0.001146
378.3164	0.000872
378.5324	0.000429
378.7485	0.000323
378.9646	-0.000246
379.1807	0.000155
379.3968	0.000028
379.6129	0.000556
379.8291	0.000176
380.0452	0.000766
380.2614	0.000260
380.4776	-0.000963
380.6938	0.000239
380.9100	0.000323
381.1262	0.000745
381.3424	0.000197
381.5587	-0.000373
381.7749	-0.000858
381.9912	0.000281
382.2075	-0.001238
382.4238	0.001357
382.6401	0.000049
382.8564	-0.000689
383.0728	0.000091
383.2891	0.001357
383.5055	-0.000710
383.7219	0.000239
383.9382	0.000682
384.1546	0.000197
384.3711	0.000218
384.5875	0.001041
384.8039	0.001294
385.0204	-0.000141
385.2368	0.001505
385.4533	0.000809
385.6698	0.000619
385.8863	-0.000120
386.1028	-0.000267
386.3194	0.000788
386.5359	-0.000120
386.7525	0.000450
386.9690	0.001948
387.1856	0.001252
387.4022	0.000323
387.6188	0.001294
387.8355	0.001800
388.0521	0.002117
388.2687	0.001758
388.4854	0.001800
388.7021	0.000788
388.9188	0.002686
389.1355	0.001674
389.3522	0.001420
389.5689	0.002517
389.7856	0.003446
390.0024	0.001779
390.2192	0.002180
390.4359	0.002876
390.6527	0.002686
390.8695	0.003488
391.0863	0.002855
391.3032	0.003214
391.5200	0.003045
391.7369	0.003150
391.9537	0.004437
392.1706	0.004543
392.3875	0.004479
392.6044	0.005640
392.8213	0.006251
393.0383	0.005007
393.2552	0.005302
393.4722	0.006779
393.6891	0.005935
393.9061	0.005007
394.1231	0.007137
394.3401	0.007517
394.5572	0.006104
394.7742	0.007897
394.9912	0.007665
395.2083	0.007137
395.4254	0.006779
395.6425	0.008867
395.8596	0.008530
396.0767	0.008593
396.2938	0.009648
396.5109	0.009606
396.7281	0.009753
396.9453	0.009542
397.1624	0.010386
397.3796	0.010977
397.5968	0.011399
397.8140	0.011504
398.0313	0.014416
398.2485	0.011863
398.4658	0.013741
398.6830	0.014205
398.9003	0.015639
399.1176	0.012369
399.3349	0.013614
399.5522	0.011568
399.7696	0.013445
399.9869	0.013508
400.2043	0.014078
400.4216	0.014015
400.6390	0.013762
400.8564	0.013361
401.0738	0.015259
401.2912	0.013783
401.5087	0.014985
401.7261	0.014605
401.9436	0.016694
402.1610	0.015829
402.3785	0.016230
402.5960	0.016356
402.8135	0.017981
403.0310	0.016525
403.2486	0.015745
403.4661	0.017306
403.6837	0.018846
403.9013	0.018318
404.1189	0.018213
404.3365	0.016567
404.5541	0.018002
404.7717	0.015829
404.9893	0.017918
405.2070	0.017432
405.4246	0.021989
405.6423	0.019690
405.8600	0.019331
406.0777	0.020112
406.2954	0.020196
406.5131	0.017770
406.7309	0.019922
406.9486	0.019015
407.1664	0.018276
407.3842	0.018719
407.6020	0.017728
407.8198	0.020976
408.0376	0.019289
408.2554	0.019099
408.4733	0.020238
408.6911	0.021251
408.9090	0.019331
409.1269	0.020090
409.3448	0.022010
409.5627	0.020702
409.7806	0.020470
409.9985	0.021609
410.2165	0.021293
410.4344	0.022453
410.6524	0.020090
410.8704	0.020112
411.0884	0.020955
411.3064	0.020027
411.5244	0.021124
411.7424	0.020976
411.9605	0.020322
412.1785	0.023086
412.3966	0.023782
412.6147	0.022833
412.8328	0.023360
413.0509	0.023403
413.2690	0.024394
413.4871	0.025850
413.7053	0.022622
413.9234	0.023192
414.1416	0.022938
414.3598	0.022390
414.5780	0.021124
414.7962	0.023170
415.0144	0.022854
415.2326	0.022791
415.4509	0.023002
415.6692	0.022516
415.8874	0.022031
416.1057	0.022959
416.3240	0.022559
416.5423	0.022981
416.7606	0.023846
416.9790	0.023128
417.1973	0.023107
417.4157	0.023381
417.6341	0.024521
417.8524	0.023445
418.0708	0.023403
418.2893	0.023339
418.5077	0.025069
418.7261	0.024542
418.9446	0.023824
419.1630	0.023613
419.3815	0.024542
419.6000	0.024289
419.8185	0.023972
420.0370	0.024183
420.2555	0.025491
420.4741	0.026883
420.6926	0.026250
420.9112	0.027622
421.1298	0.026293
421.3483	0.028930
421.5669	0.028529
421.7856	0.028339
422.0042	0.029288
422.2228	0.029246
422.4415	0.028571
422.6601	0.028655
422.8788	0.027854
423.0975	0.027769
423.3162	0.027580
423.5349	0.027558
423.7536	0.026461
423.9724	0.027790
424.1911	0.025786
424.4099	0.026504
424.6287	0.027411
424.8475	0.025512
425.0663	0.026672
425.2851	0.027537
425.5039	0.027115
425.7228	0.026356
425.9416	0.026293
426.1605	0.023782
426.3793	0.025259
426.5982	0.023993
426.8171	0.024204
427.0361	0.023213
427.2550	0.024478
427.4739	0.025111
427.6929	0.026883
427.9118	0.026018
