# Wavelength (nm)	Intensity (a.u.)
197.7802	0.000341
197.9842	-0.000460
198.1882	0.000974
198.3922	0.000889
198.5963	0.001416
198.8003	-0.000988
199.0044	0.000404
199.2085	0.001184
199.4126	0.001564
199.6168	0.000046
199.8209	0.001311
200.0251	0.001353
200.2292	0.000425
200.4334	0.000531
200.6376	0.001585
200.8418	0.001374
201.0461	0.002049
201.2503	-0.000207
201.4546	0.000805
201.6589	-0.000039
201.8631	0.000341
202.0674	0.000046
202.2718	0.000025
202.4761	0.000974
202.6805	0.001733
202.8848	0.001311
203.0892	0.001754
203.2936	-0.000566
203.4980	0.001796
203.7024	-0.000250
203.9069	0.001943
204.1113	-0.001325
204.3158	0.000109
204.5203	0.000172
204.7248	0.001501
204.9293	0.000383
205.1338	0.000594
205.3384	0.002323
205.5430	0.000510
205.7475	0.000826
205.9521	-0.000418
206.1567	0.000214
206.3614	0.000299
206.5660	0.001437
206.7706	0.000931
206.9753	-0.000102
207.1800	0.001690
207.3847	0.000594
207.5894	0.000446
207.7941	0.000235
207.9989	0.000847
208.2036	0.001205
208.4084	0.000531
208.6132	0.000404
208.8180	0.000636
209.0228	0.001648
209.2276	0.001332
209.4325	0.001395
209.6373	0.000257
209.8422	0.000678
210.0471	-0.000334
210.2520	0.000130
210.4569	0.000868
210.6618	-0.000503
210.8668	0.000235
211.0718	0.000341
211.2767	0.001627
211.4817	0.000067
211.6867	0.001227
211.8918	0.000446
212.0968	0.000235
212.3018	0.001016
212.5069	0.001079
212.7120	0.001733
212.9171	0.001353
213.1222	0.000931
213.3273	-0.000271
213.5325	-0.000713
213.7376	0.000341
213.9428	0.001079
214.1480	0.001395
214.3532	0.000467
214.5584	0.001311
214.7636	0.000341
214.9689	0.001205
215.1741	0.000784
215.3794	-0.000271
215.5847	0.000257
215.7900	0.001353
215.9953	0.000657
216.2007	0.000615
216.4060	0.000784
216.6114	0.001690
216.8168	-0.001262
217.0222	0.001501
217.2276	0.001269
217.4330	-0.000777
217.6384	0.000826
217.8439	0.002091
218.0494	0.000425
218.2548	0.001859
218.4603	0.001290
218.6659	0.000826
218.8714	0.002450
219.0769	0.001269
219.2825	0.001353
219.4881	0.002091
219.6936	0.001290
219.8992	0.001480
220.1049	-0.000418
220.3105	-0.001198
220.5161	0.000467
220.7218	0.000910
220.9275	-0.000186
221.1332	0.002513
221.3389	0.000952
221.5446	0.001374
221.7503	-0.000819
221.9561	0.000763
222.1618	0.001100
222.3676	0.001332
222.5734	0.000615
222.7792	0.000552
222.9850	0.000889
223.1909	0.000699
223.3967	0.000531
223.6026	0.000172
223.8085	0.000278
224.0144	0.001121
224.2203	-0.000355
224.4262	0.000278
224.6322	0.000889
224.8381	0.001227
225.0441	0.000130
225.2501	0.001332
225.4561	-0.000460
225.6621	0.000467
225.8681	0.000046
226.0742	0.000763
226.2802	-0.000524
226.4863	0.000552
226.6924	-0.000207
226.8985	0.001121
227.1046	0.000046
227.3107	0.001353
227.5169	0.000425
227.7230	0.001311
227.9292	0.001121
228.1354	0.001395
228.3416	0.000320
228.5478	0.000910
228.7541	-0.000039
228.9603	0.000742
229.1666	0.000172
229.3729	0.000594
229.5791	0.000931
229.7855	0.001100
229.9918	0.000594
230.1981	0.001943
230.4045	0.000889
230.6108	0.001775
230.8172	0.000383
231.0236	0.000636
231.2300	0.001037
231.4364	0.000657
231.6429	0.000910
231.8493	0.000467
232.0558	0.001037
232.2623	-0.000081
232.4688	0.000383
232.6753	0.000974
232.8818	-0.000397
233.0884	0.000974
233.2949	-0.000355
233.5015	0.000615
233.7081	0.000974
233.9147	0.000868
234.1213	0.000742
234.3279	-0.000608
234.5346	0.001606
234.7413	0.000594
234.9479	-0.000798
235.1546	0.001669
235.3613	0.000805
235.5680	0.000995
235.7748	-0.000123
235.9815	0.000952
236.1883	0.000594
236.3951	0.001100
236.6018	0.001037
236.8087	0.001564
237.0155	0.001079
237.2223	0.000995
237.4292	0.000193
237.6360	-0.000882
237.8429	0.001522
238.0498	0.000489
238.2567	0.000489
238.4636	0.000974
238.6706	0.000088
238.8775	0.000552
239.0845	0.000489
239.2915	0.001227
239.4985	0.000573
239.7055	0.001100
239.9125	-0.000777
240.1195	0.001184
240.3266	0.001184
240.5337	-0.000165
240.7407	0.000193
240.9478	0.000130
241.1549	0.000383
241.3621	0.000573
241.5692	0.001311
241.7764	0.000235
241.9835	0.000235
242.1907	-0.000018
242.3979	0.001395
242.6051	-0.000165
242.8124	0.000278
243.0196	0.001922
243.2269	0.001037
243.4341	0.001712
243.6414	0.000889
243.8487	0.000109
244.0560	0.001121
244.2634	0.001480
244.4707	0.000594
244.6781	-0.000207
244.8854	0.001416
245.0928	0.002386
245.3002	0.001353
245.5076	0.002049
245.7151	0.001058
245.9225	0.001543
246.1300	0.000446
246.3375	0.000257
246.5449	-0.000545
246.7524	0.001395
246.9600	0.000467
247.1675	0.000046
247.3750	0.000552
247.5826	0.000995
247.7902	0.002513
247.9978	0.001184
248.2054	0.000742
248.4130	0.000931
248.6206	0.000172
248.8283	0.000763
249.0359	0.000404
249.2436	0.001037
249.4513	0.001501
249.6590	0.000931
249.8667	0.000552
250.0745	0.000657
250.2822	0.000636
250.4900	-0.000018
250.6978	0.001585
250.9056	0.001648
251.1134	-0.000123
251.3212	0.001669
251.5290	0.000467
251.7369	0.000425
251.9447	0.000552
252.1526	0.000763
252.3605	0.000299
252.5684	0.000995
252.7763	0.000088
252.9843	0.000257
253.1922	0.000952
253.4002	0.002091
253.6082	0.001269
253.8162	0.000573
254.0242	0.000805
254.2322	0.000699
254.4402	0.000742
254.6483	0.001775
254.8564	0.001648
255.0644	0.001648
255.2725	0.000742
255.4806	0.001142
255.6888	0.000742
255.8969	-0.000629
256.1051	0.001458
256.3132	0.001733
256.5214	0.001227
256.7296	0.000805
256.9378	0.000320
257.1460	0.000046
257.3543	0.001712
257.5625	0.000193
257.7708	-0.000039
257.9791	0.001458
258.1874	-0.000503
258.3957	-0.000018
258.6040	0.000214
258.8124	0.002428
259.0207	0.000257
259.2291	0.001353
259.4375	0.000004
259.6459	0.001965
259.8543	0.000931
260.0627	0.000784
260.2711	-0.000292
260.4796	-0.000165
260.6881	0.000826
260.8965	0.000320
261.1050	0.000489
261.3135	0.000489
261.5221	0.001690
261.7306	0.001733
261.9392	0.000088
262.1477	0.001121
262.3563	0.001669
262.5649	0.000088
262.7735	-0.000018
262.9822	0.001585
263.1908	0.000720
263.3995	0.001248
263.6081	0.001648
263.8168	0.001016
264.0255	0.001458
264.2342	0.000742
264.4429	-0.000102
264.6517	0.000995
264.8604	-0.000018
265.0692	0.000552
265.2780	0.000657
265.4868	0.000742
265.6956	0.001121
265.9044	0.001184
266.1133	0.000489
266.3221	0.001121
266.5310	0.000446
266.7399	0.001880
266.9488	-0.000313
267.1577	0.000299
267.3666	-0.000207
267.5755	0.001142
267.7845	-0.000334
267.9935	0.001290
268.2024	-0.000271
268.4114	0.000510
268.6205	-0.000102
268.8295	0.001395
269.0385	0.001501
269.2476	0.000995
269.4566	0.000214
269.6657	0.001269
269.8748	0.000151
270.0839	0.001142
270.2931	0.000868
270.5022	0.002323
270.7114	-0.000376
270.9205	0.000320
271.1297	-0.000355
271.3389	0.000847
271.5481	0.000151
271.7573	0.000594
271.9666	0.000320
272.1758	0.000826
272.3851	0.000931
272.5944	0.000784
272.8037	-0.000692
273.0130	0.001733
273.2223	-0.000355
273.4316	0.000636
273.6410	0.000299
273.8504	0.000046
274.0597	0.000341
274.2691	0.001648
274.4785	0.000931
274.6880	-0.000735
274.8974	0.001543
275.1069	0.001290
275.3163	0.000847
275.5258	0.000467
275.7353	0.000742
275.9448	0.001859
276.1543	0.001648
276.3639	0.000489
276.5734	0.000847
276.7830	0.000594
276.9926	0.000257
277.2022	0.000826
277.4118	-0.000018
277.6214	-0.001557
277.8310	-0.000228
278.0407	0.000510
278.2503	0.000067
278.4600	0.000531
278.6697	0.000341
278.8794	0.001311
279.0891	0.000404
279.2989	0.001058
279.5086	0.001205
279.7184	0.000742
279.9281	-0.000397
280.1379	0.000657
280.3477	-0.000271
280.5576	0.000467
280.7674	-0.000102
280.9772	0.001416
281.1871	0.000678
281.3970	0.000467
281.6069	0.000974
281.8168	0.000004
282.0267	0.001480
282.2366	0.001332
282.4466	0.001501
282.6565	0.000784
282.8665	0.000278
283.0765	0.001079
283.2865	0.000931
283.4965	0.001943
283.7065	-0.001198
283.9166	0.000383
284.1266	0.000636
284.3367	0.001184
284.5468	0.001121
284.7569	0.001121
284.9670	0.000657
285.1771	0.000467
285.3873	0.001437
285.5974	-0.000165
285.8076	0.000699
286.0178	0.000489
286.2280	0.000594
286.4382	0.000510
286.6484	-0.000207
286.8587	0.001416
287.0689	0.001248
287.2792	0.001311
287.4895	0.000046
287.6998	0.000868
287.9101	-0.000587
288.1204	0.000362
288.3308	0.000446
288.5411	0.001648
288.7515	0.000995
288.9619	0.000257
289.1723	0.001205
289.3827	0.000742
289.5931	-0.000629
289.8035	0.000720
290.0140	-0.000081
290.2245	0.000235
290.4349	-0.000081
290.6454	0.002070
290.8559	-0.000123
291.0665	0.001332
291.2770	-0.000018
291.4875	0.001922
291.6981	0.000025
291.9087	0.001353
292.1193	-0.000334
292.3299	0.001163
292.5405	0.000046
292.7511	0.001079
292.9618	0.000889
293.1724	0.001079
293.3831	0.000995
293.5938	0.001100
293.8045	0.000425
294.0152	0.000678
294.2260	-0.000481
294.4367	0.001817
294.6475	0.001205
294.8582	0.000931
295.0690	0.001311
295.2798	0.001121
295.4906	0.001395
295.7015	0.001184
295.9123	0.001712
296.1232	0.002323
296.3340	-0.000355
296.5449	0.001796
296.7558	0.000362
296.9667	0.000995
297.1777	0.000573
297.3886	0.000278
297.5995	0.000004
297.8105	0.001880
298.0215	0.001311
298.2325	0.000826
298.4435	0.001943
298.6545	0.000425
298.8656	0.001416
299.0766	-0.000102
299.2877	0.000889
299.4988	0.001627
299.7099	0.000636
299.9210	0.000910
300.1321	-0.000271
300.3432	0.000467
300.5544	0.000489
300.7655	-0.000186
300.9767	0.000805
301.1879	0.000805
301.3991	0.000278
301.6103	0.000573
301.8215	0.000657
302.0328	0.001965
302.2441	-0.000250
302.4553	0.000193
302.6666	0.002513
302.8779	0.000931
303.0892	-0.000671
303.3006	0.000552
303.5119	0.000446
303.7233	-0.000250
303.9346	0.000868
304.1460	0.000489
304.3574	-0.000882
304.5688	0.001437
304.7803	-0.000144
304.9917	0.001458
305.2031	0.000573
305.4146	0.000446
305.6261	0.001395
305.8376	0.000172
306.0491	0.000278
306.2606	0.001353
306.4722	0.001374
306.6837	0.001353
306.8953	0.000193
307.1069	0.001501
307.3184	0.001311
307.5301	0.000130
307.7417	-0.001262
307.9533	0.000214
308.1650	-0.000207
308.3766	0.001079
308.5883	0.000847
308.8000	0.001100
309.0117	0.000573
309.2234	0.001163
309.4351	0.000088
309.6469	0.001290
309.8586	0.001058
310.0704	0.000320
310.2822	0.000193
310.4940	0.001100
310.7058	-0.000186
310.9176	0.002428
311.1295	0.000720
311.3413	0.001627
311.5532	0.001585
311.7651	0.001395
311.9770	-0.000081
312.1889	0.000699
312.4008	0.000235
312.6127	0.001269
312.8247	0.001100
313.0366	0.000763
313.2486	0.000847
313.4606	-0.000376
313.6726	0.000151
313.8846	0.000151
314.0967	0.001859
314.3087	0.001058
314.5208	0.000826
314.7328	0.000720
314.9449	0.000974
315.1570	0.001121
315.3692	0.001458
315.5813	0.002576
315.7934	-0.000123
316.0056	0.000341
316.2177	0.001374
316.4299	0.001901
316.6421	0.001733
316.8543	0.000931
317.0666	0.000847
317.2788	0.001880
317.4911	0.000763
317.7033	0.002534
317.9156	0.001121
318.1279	0.000931
318.3402	0.000636
318.5525	0.000341
318.7649	-0.000671
318.9772	-0.000756
319.1896	0.000826
319.4019	-0.000018
319.6143	0.000383
319.8267	0.000109
320.0392	-0.000039
320.2516	0.000636
320.4640	0.000510
320.6765	0.000446
320.8890	0.000952
321.1014	0.001142
321.3139	0.000952
321.5265	0.001353
321.7390	-0.000123
321.9515	0.000257
322.1641	0.000742
322.3766	0.000720
322.5892	-0.000144
322.8018	0.001332
323.0144	0.000952
323.2270	0.001142
323.4397	0.001395
323.6523	-0.000629
323.8650	0.001437
324.0777	0.001121
324.2904	0.000278
324.5031	0.000910
324.7158	-0.000081
324.9285	0.000995
325.1412	-0.000123
325.3540	0.000995
325.5668	-0.000039
325.7796	0.001142
325.9924	-0.000228
326.2052	-0.000123
326.4180	-0.000460
326.6308	0.001290
326.8437	0.000004
327.0566	0.001943
327.2694	0.000573
327.4823	0.000699
327.6952	0.001079
327.9082	0.002028
328.1211	0.000531
328.3340	0.001648
328.5470	0.000615
328.7600	0.001564
328.9730	0.000172
329.1860	0.000552
329.3990	0.000467
329.6120	0.001775
329.8251	0.000573
330.0381	0.000446
330.2512	0.000151
330.4643	0.000931
330.6774	0.001353
330.8905	0.002197
331.1036	-0.000271
331.3167	0.000109
331.5299	0.000257
331.7431	0.000847
331.9562	0.001016
332.1694	0.001290
332.3826	0.000467
332.5959	0.001859
332.8091	0.000847
333.0223	0.001901
333.2356	0.001606
333.4489	0.001733
333.6622	0.002154
333.8755	-0.000608
334.0888	0.002070
334.3021	0.000235
334.5154	0.000636
334.7288	0.000362
334.9422	0.000362
335.1555	0.001269
335.3689	0.000025
335.5823	0.000952
335.7958	-0.000313
336.0092	0.000510
336.2227	0.000910
336.4361	0.001437
336.6496	0.001058
336.8631	0.000678
337.0766	0.000467
337.2901	0.000636
337.5036	0.000299
337.7172	0.001205
337.9307	-0.000650
338.1443	0.002175
338.3579	0.001269
338.5715	0.000467
338.7851	0.000446
338.9987	-0.000144
339.2124	0.001269
339.4260	0.000763
339.6397	0.000510
339.8533	-0.000503
340.0670	0.000742
340.2807	0.001986
340.4945	0.001016
340.7082	0.000699
340.9219	0.000699
341.1357	0.001480
341.3495	0.000742
341.5633	0.000467
341.7771	-0.000144
341.9909	0.001965
342.2047	0.000678
342.4185	0.001142
342.6324	0.000130
342.8463	0.001564
343.0601	0.000341
343.2740	0.002428
343.4879	-0.000376
343.7019	0.001458
343.9158	0.001437
344.1297	0.000636
344.3437	0.001817
344.5577	0.000320
344.7717	0.001480
344.9857	0.001754
345.1997	-0.000165
345.4137	0.000889
345.6277	0.001501
345.8418	0.001754
346.0559	0.000257
346.2699	0.000974
346.4840	0.000320
346.6981	0.001458
346.9123	0.000974
347.1264	0.000995
347.3406	0.000678
347.5547	0.000425
347.7689	0.000425
347.9831	0.001269
348.1973	0.001100
348.4115	0.001712
348.6257	0.000552
348.8400	0.001437
349.0542	0.001986
349.2685	-0.000376
349.4828	0.000847
349.6971	-0.000018
349.9114	-0.000966
350.1257	0.001269
350.3400	0.001564
350.5544	0.001754
350.7687	0.000868
350.9831	0.000720
351.1975	0.001163
351.4119	0.002133
351.6263	-0.000186
351.8407	0.000657
352.0552	0.002154
352.2696	0.000805
352.4841	0.001227
352.6986	0.000889
352.9131	0.000510
353.1276	0.000088
353.3421	0.000109
353.5566	0.001016
353.7712	-0.000756
353.9858	0.001184
354.2003	0.000299
354.4149	0.000510
354.6295	0.000278
354.8441	0.000952
355.0588	0.000425
355.2734	-0.000060
355.4881	0.001353
355.7027	0.000552
355.9174	-0.000418
356.1321	0.001480
356.3468	0.000025
356.5615	0.002745
356.7763	0.000299
356.9910	0.001016
357.2058	0.001079
357.4206	0.000889
357.6353	0.002091
357.8501	0.001100
358.0650	0.000046
358.2798	0.000742
358.4946	0.000910
358.7095	0.001690
358.9243	0.000067
359.1392	0.001690
359.3541	0.000299
359.5690	0.001395
359.7839	0.002450
359.9989	0.001016
360.2138	0.001227
360.4288	0.002302
360.6438	0.001163
360.8587	0.001395
361.0737	0.000214
361.2888	0.002070
361.5038	0.000826
361.7188	0.000214
361.9339	0.000699
362.1489	0.000573
362.3640	0.001606
362.5791	0.000868
362.7942	0.001332
363.0093	0.000046
363.2245	0.001142
363.4396	0.001374
363.6548	0.000193
363.8699	0.000151
364.0851	-0.000271
364.3003	-0.000060
364.5155	0.000214
364.7308	0.001269
364.9460	0.001227
365.1612	0.002112
365.3765	0.000425
365.5918	0.001184
365.8071	0.002028
366.0224	0.000657
366.2377	0.001248
366.4530	0.000257
366.6684	-0.001009
366.8837	-0.000439
367.0991	0.001290
367.3145	0.000404
367.5299	0.000594
367.7453	0.001543
367.9607	0.000214
368.1761	0.002197
368.3916	-0.000060
368.6070	0.000341
368.8225	-0.000503
369.0380	-0.001283
369.2535	0.000404
369.4690	0.001585
369.6845	0.000615
369.9001	0.000995
370.1156	0.000720
370.3312	0.001501
370.5468	0.001016
370.7624	0.000193
370.9780	0.000678
371.1936	0.001648
371.4092	-0.000924
371.6249	0.002260
371.8405	0.000235
372.0562	0.000763
372.2719	0.000383
372.4876	0.001564
372.7033	0.001754
372.9190	0.000193
373.1348	0.001311
373.3505	0.001016
373.5663	0.000088
373.7820	0.001311
373.9978	0.000657
374.2136	0.000299
374.4294	0.001416
374.6453	0.000805
374.8611	0.000763
375.0770	0.000974
375.2928	0.001733
375.5087	0.000446
375.7246	-0.000777
375.9405	0.001754
376.1564	0.000699
376.3724	0.000763
376.5883	0.002239
376.8043	0.000172
377.0203	0.000678
377.2362	0.001205
377.4522	0.001648
377.6682	0.000531
377.8843	-0.000313
378.1003	0.000404
378.3164	-0.001220
378.5324	0.001311
378.7485	0.001669
378.9646	0.001690
379.1807	0.001100
379.3968	0.003209
379.6129	0.000678
379.8291	0.000552
380.0452	0.000172
380.2614	-0.000608
380.4776	0.000594
380.6938	0.000699
380.9100	0.001669
381.1262	0.000383
381.3424	0.000784
381.5587	0.000868
381.7749	0.000678
381.9912	0.001669
382.2075	0.001079
382.4238	0.001501
382.6401	0.001395
382.8564	0.002365
383.0728	-0.000039
383.2891	0.001227
383.5055	0.000362
383.7219	0.001290
383.9382	0.000678
384.1546	0.000425
384.3711	0.000467
384.5875	0.000805
384.8039	0.001037
385.0204	0.000784
385.2368	0.000320
385.4533	0.001901
385.6698	0.000910
385.8863	0.002133
386.1028	0.001395
386.3194	0.000531
386.5359	0.000214
386.7525	0.000826
386.9690	0.001332
387.1856	0.000004
387.4022	0.000889
387.6188	0.000467
387.8355	0.002091
388.0521	0.001648
388.2687	0.000214
388.4854	0.000974
388.7021	0.001184
388.9188	0.000995
389.1355	0.001248
389.3522	0.001142
389.5689	0.001733
389.7856	0.002112
390.0024	-0.000250
390.2192	0.000826
390.4359	0.001458
390.6527	0.001395
390.8695	0.001395
391.0863	0.001922
391.3032	0.001501
391.5200	0.002302
391.7369	0.001922
391.9537	0.002555
392.1706	0.000910
392.3875	0.000678
392.6044	0.002133
392.8213	0.003167
393.0383	0.000383
393.2552	0.001227
393.4722	0.002450
393.6891	0.002998
393.9061	0.001585
394.1231	0.003040
394.3401	0.001353
394.5572	0.003778
394.7742	0.002829
394.9912	0.001922
395.2083	0.001922
395.4254	0.003335
395.6425	0.002808
395.8596	0.002471
396.0767	0.002618
396.2938	0.002028
396.5109	0.003293
396.7281	0.003778
396.9453	0.002829
397.1624	0.003567
397.3796	0.003462
397.5968	0.004411
397.8140	0.002766
398.0313	0.004347
398.2485	0.002913
398.4658	0.004115
398.6830	0.003883
398.9003	0.003441
399.1176	0.002450
399.3349	0.004600
399.5522	0.003757
399.7696	0.004980
399.9869	0.005022
400.2043	0.005486
400.4216	0.003251
400.6390	0.004052
400.8564	0.004263
401.0738	0.003124
401.2912	0.004368
401.5087	0.003778
401.7261	0.004643
401.9436	0.003757
402.1610	0.004284
402.3785	0.006351
402.5960	0.004031
402.8135	0.005360
403.0310	0.004980
403.2486	0.005697
403.4661	0.004727
403.6837	0.004917
403.9013	0.006098
404.1189	0.005275
404.3365	0.005887
404.5541	0.005486
404.7717	0.006393
404.9893	0.006540
405.2070	0.006034
405.4246	0.006772
405.6423	0.006055
405.8600	0.006625
406.0777	0.005592
406.2954	0.006456
406.5131	0.006604
406.7309	0.007447
406.9486	0.005887
407.1664	0.006435
407.3842	0.006772
407.6020	0.005170
407.8198	0.007553
408.0376	0.006857
408.2554	0.007489
408.4733	0.007468
408.6911	0.006625
408.9090	0.007089
409.1269	0.007489
409.3448	0.007194
409.5627	0.006857
409.7806	0.008059
409.9985	0.008459
410.2165	0.007447
410.4344	0.008080
410.6524	0.007194
410.8704	0.006983
411.0884	0.008417
411.3064	0.008291
411.5244	0.008122
411.7424	0.007911
411.9605	0.008122
412.1785	0.008712
412.3966	0.008755
412.6147	0.011116
412.8328	0.007574
413.0509	0.009914
413.2690	0.009535
413.4871	0.008691
413.7053	0.008038
413.9234	0.010231
414.1416	0.010231
414.3598	0.008881
414.5780	0.010589
414.7962	0.009113
415.0144	0.011454
415.2326	0.010357
415.4509	0.009008
415.6692	0.010294
415.8874	0.009282
416.1057	0.010273
416.3240	0.010758
416.5423	0.009577
416.7606	0.010800
416.9790	0.011032
417.1973	0.011222
417.4157	0.011074
417.6341	0.010273
417.8524	0.010315
418.0708	0.010694
418.2893	0.010188
418.5077	0.011011
418.7261	0.012107
418.9446	0.013141
419.1630	0.012065
419.3815	0.011411
419.6000	0.012297
419.8185	0.012740
420.0370	0.011770
420.2555	0.011812
420.4741	0.012951
420.6926	0.012529
420.9112	0.012951
421.1298	0.012318
421.3483	0.014849
421.5669	0.013963
421.7856	0.015081
422.0042	0.015861
422.2228	0.015587
422.4415	0.013267
422.6601	0.014954
422.8788	0.014237
423.0975	0.015608
423.3162	0.015334
423.5349	0.015566
423.7536	0.014596
423.9724	0.014870
424.1911	0.013689
424.4099	0.016051
424.6287	0.014912
424.8475	0.013858
425.0663	0.014195
425.2851	0.015650
425.5039	0.016388
425.7228	0.015755
425.9416	0.012888
426.1605	0.014743
426.3793	0.013141
426.5982	0.013583
426.8171	0.013541
427.0361	0.012698
427.2550	0.015165
427.4739	0.017168
427.6929	0.014870
427.9118	0.014132
428.1308	0.015755
428.3498	0.014321
428.5688	0.015144
428.7878	0.015566
429.0068	0.015291
429.2259	0.015671
429.4449	0.015481
429.6640	0.016409
429.8831	0.018075
430.1022	0.017548
430.3213	0.017569
430.5404	0.017885
430.7595	0.016936
