# Wavelength (nm)	Intensity (a.u.)
197.7802	0.001615
197.9842	-0.000177
198.1882	0.002268
198.3922	0.001615
198.5963	0.000202
198.8003	0.001868
199.0044	0.001298
199.2085	0.000982
199.4126	0.000771
199.6168	0.001003
199.8209	0.001024
200.0251	0.000371
200.2292	0.001678
200.4334	0.000202
200.6376	-0.000009
200.8418	0.001572
201.0461	0.001446
201.2503	0.000265
201.4546	0.001130
201.6589	0.000940
201.8631	0.002226
202.0674	0.000476
202.2718	0.001340
202.4761	0.001214
202.6805	0.002226
202.8848	0.000097
203.0892	0.000012
203.2936	0.001024
203.4980	0.001045
203.7024	-0.000641
203.9069	0.001340
204.1113	-0.000494
204.3158	0.000497
204.5203	0.001214
204.7248	0.001298
204.9293	0.001024
205.1338	0.000476
205.3384	0.000518
205.5430	0.000687
205.7475	-0.000325
205.9521	0.000813
206.1567	0.000286
206.3614	0.001467
206.5660	0.000476
206.7706	0.000624
206.9753	-0.000009
207.1800	0.001657
207.3847	-0.000009
207.5894	0.001446
207.7941	0.000076
207.9989	0.001636
208.2036	-0.000852
208.4084	0.000645
208.6132	-0.000009
208.8180	0.001256
209.0228	0.000497
209.2276	0.000413
209.4325	0.000476
209.6373	-0.000093
209.8422	0.000982
210.0471	0.000835
210.2520	-0.000789
210.4569	0.001467
210.6618	0.000286
210.8668	0.002627
211.0718	0.001551
211.2767	0.000497
211.4817	-0.000536
211.6867	0.000286
211.8918	0.000687
212.0968	0.000708
212.3018	0.000856
212.5069	0.000624
212.7120	0.000434
212.9171	0.001720
213.1222	0.000012
213.3273	0.001889
213.5325	0.001151
213.7376	0.000076
213.9428	0.000792
214.1480	0.001045
214.3532	0.001446
214.5584	0.000729
214.7636	0.000054
214.9689	0.000687
215.1741	-0.000662
215.3794	0.000877
215.5847	-0.000683
215.7900	0.002078
215.9953	-0.000093
216.2007	-0.000367
216.4060	0.002057
216.6114	0.001172
216.8168	0.000012
217.0222	0.002437
217.2276	-0.000156
217.4330	0.000940
217.6384	0.001404
217.8439	0.000624
218.0494	0.000371
218.2548	0.000476
218.4603	0.001256
218.6659	0.000265
218.8714	0.000244
219.0769	0.000666
219.2825	0.000750
219.4881	0.001172
219.6936	-0.000072
219.8992	0.000624
220.1049	0.001151
220.3105	0.001383
220.5161	0.001636
220.7218	0.002479
220.9275	0.000792
221.1332	-0.000156
221.3389	-0.001253
221.5446	0.001256
221.7503	0.001172
221.9561	0.002078
222.1618	-0.000304
222.3676	0.000223
222.5734	-0.000262
222.7792	0.000666
222.9850	-0.000051
223.1909	0.000497
223.3967	-0.000599
223.6026	0.000940
223.8085	0.000307
224.0144	0.000898
224.2203	0.000982
224.4262	0.001404
224.6322	-0.000494
224.8381	0.001931
225.0441	0.000139
225.2501	0.000012
225.4561	0.000160
225.6621	0.001298
225.8681	0.000539
226.0742	0.000898
226.2802	0.000771
226.4863	0.000856
226.6924	0.000202
226.8985	0.001130
227.1046	0.001109
227.3107	0.000792
227.5169	0.000624
227.7230	0.001846
227.9292	0.001193
228.1354	-0.000515
228.3416	0.001298
228.5478	-0.000283
228.7541	0.000539
228.9603	-0.000114
229.1666	0.000518
229.3729	0.001319
229.5791	0.000265
229.7855	0.001003
229.9918	0.000097
230.1981	0.000687
230.4045	-0.000325
230.6108	-0.001084
230.8172	0.001045
231.0236	0.000329
231.2300	0.000645
231.4364	0.002922
231.6429	0.001446
231.8493	0.001467
232.0558	0.001868
232.2623	0.001446
232.4688	0.000371
232.6753	0.000645
232.8818	-0.000135
233.0884	0.001804
233.2949	0.000940
233.5015	0.001593
233.7081	0.000476
233.9147	0.000919
234.1213	-0.000768
234.3279	0.001256
234.5346	0.000265
234.7413	0.000497
234.9479	0.000582
235.1546	0.002901
235.3613	0.000687
235.5680	0.001151
235.7748	0.000054
235.9815	0.000160
236.1883	0.001362
236.3951	0.000645
236.6018	0.000771
236.8087	0.000455
237.0155	0.000982
237.2223	0.001846
237.4292	0.000244
237.6360	0.001952
237.8429	0.002184
238.0498	0.000856
238.2567	0.001804
238.4636	0.001973
238.6706	0.000455
238.8775	0.001425
239.0845	0.001319
239.2915	0.001404
239.4985	0.000961
239.7055	0.000181
239.9125	-0.000199
240.1195	0.002015
240.3266	0.000076
240.5337	0.000012
240.7407	0.000666
240.9478	0.001783
241.1549	0.000244
241.3621	0.001003
241.5692	0.000329
241.7764	0.001193
241.9835	0.000771
242.1907	0.000223
242.3979	0.000835
242.6051	0.000708
242.8124	-0.000388
243.0196	0.002352
243.2269	0.000771
243.4341	0.001488
243.6414	0.002099
243.8487	0.001973
244.0560	-0.000936
244.2634	0.000476
244.4707	-0.000388
244.6781	0.001172
244.8854	0.000582
245.0928	0.000750
245.3002	0.002057
245.5076	0.000687
245.7151	0.001003
245.9225	0.000771
246.1300	0.000645
246.3375	0.000582
246.5449	-0.000768
246.7524	0.001699
246.9600	-0.000093
247.1675	0.001720
247.3750	0.001467
247.5826	0.000771
247.7902	0.000329
247.9978	0.000371
248.2054	-0.000304
248.4130	0.000771
248.6206	0.000666
248.8283	0.000813
249.0359	0.001130
249.2436	0.000856
249.4513	0.001298
249.6590	0.001066
249.8667	0.002036
250.0745	-0.000241
250.2822	-0.000979
250.4900	0.001678
250.6978	0.000160
250.9056	-0.000199
251.1134	0.000371
251.3212	0.000202
251.5290	0.001846
251.7369	0.000054
251.9447	-0.000220
252.1526	-0.000367
252.3605	0.000687
252.5684	0.000413
252.7763	0.000961
252.9843	0.001699
253.1922	0.000476
253.4002	0.000729
253.6082	0.000350
253.8162	-0.000220
254.0242	0.000033
254.2322	0.001193
254.4402	0.001446
254.6483	0.002247
254.8564	0.002542
255.0644	-0.000409
255.2725	-0.000051
255.4806	0.000223
255.6888	0.001340
255.8969	0.001636
256.1051	0.001636
256.3132	0.001024
256.5214	0.001362
256.7296	0.001467
256.9378	0.000940
257.1460	0.000560
257.3543	0.001298
257.5625	0.000244
257.7708	-0.000241
257.9791	0.002205
258.1874	0.000539
258.3957	0.001383
258.6040	0.000708
258.8124	0.000497
259.0207	0.001193
259.2291	0.001636
259.4375	0.000708
259.6459	0.000877
259.8543	0.001003
260.0627	-0.000009
260.2711	0.001446
260.4796	0.000329
260.6881	0.000792
260.8965	0.001277
261.1050	0.001277
261.3135	0.001193
261.5221	0.000413
261.7306	0.002121
261.9392	-0.000641
262.1477	0.001362
262.3563	0.000856
262.5649	0.000392
262.7735	0.001277
262.9822	0.000877
263.1908	0.001551
263.3995	0.001699
263.6081	0.001762
263.8168	0.001214
264.0255	0.000898
264.2342	0.001868
264.4429	0.000582
264.6517	0.001425
264.8604	0.000371
265.0692	0.001699
265.2780	0.000582
265.4868	-0.000072
265.6956	0.001130
265.9044	0.001467
266.1133	0.001383
266.3221	0.001003
266.5310	0.001404
266.7399	0.001088
266.9488	-0.000325
267.1577	0.002479
267.3666	-0.000367
267.5755	0.001973
267.7845	0.001298
267.9935	0.001467
268.2024	-0.000093
268.4114	0.000392
268.6205	0.001151
268.8295	0.001467
269.0385	0.000497
269.2476	0.001678
269.4566	0.001298
269.6657	0.001130
269.8748	0.001425
270.0839	0.000033
270.2931	0.000329
270.5022	0.001151
270.7114	0.001045
270.9205	0.000497
271.1297	0.001298
271.3389	0.000813
271.5481	-0.000156
271.7573	0.000898
271.9666	0.001045
272.1758	0.000181
272.3851	0.000518
272.5944	0.001214
272.8037	0.000771
273.0130	0.001467
273.2223	0.000603
273.4316	0.000202
273.6410	-0.000093
273.8504	-0.000388
274.0597	0.001572
274.2691	0.001720
274.4785	0.000076
274.6880	0.001530
274.8974	0.000455
275.1069	0.000497
275.3163	0.000455
275.5258	0.000729
275.7353	-0.000852
275.9448	0.000518
276.1543	0.001362
276.3639	0.000181
276.5734	0.000666
276.7830	0.002057
276.9926	0.000371
277.2022	0.001446
277.4118	0.000371
277.6214	0.001319
277.8310	0.000940
278.0407	0.000476
278.2503	0.001952
278.4600	0.000181
278.6697	0.000160
278.8794	0.000455
279.0891	0.000835
279.2989	0.002268
279.5086	0.000624
279.7184	0.000771
279.9281	0.001572
280.1379	0.001235
280.3477	0.000139
280.5576	0.000097
280.7674	0.001467
280.9772	0.002142
281.1871	0.000813
281.3970	0.000940
281.6069	0.000160
281.8168	0.000139
282.0267	0.001425
282.2366	0.001593
282.4466	-0.000051
282.6565	0.002121
282.8665	0.001362
283.0765	0.001404
283.2865	0.000877
283.4965	0.001467
283.7065	0.001088
283.9166	0.001003
284.1266	-0.001147
284.3367	0.000202
284.5468	-0.000093
284.7569	-0.000030
284.9670	0.001277
285.1771	0.000666
285.3873	0.000518
285.5974	0.001551
285.8076	0.000961
286.0178	0.000813
286.2280	0.000371
286.4382	0.000687
286.6484	0.000329
286.8587	0.001045
287.0689	-0.000346
287.2792	0.001467
287.4895	0.001678
287.6998	0.000476
287.9101	0.000054
288.1204	0.001636
288.3308	0.000645
288.5411	0.001024
288.7515	0.000392
288.9619	-0.001042
289.1723	0.001130
289.3827	0.000265
289.5931	0.000413
289.8035	0.000856
290.0140	0.001593
290.2245	0.001488
290.4349	0.000813
290.6454	0.000265
290.8559	0.000371
291.0665	0.002015
291.2770	0.001109
291.4875	0.001404
291.6981	0.001509
291.9087	0.001045
292.1193	0.001024
292.3299	0.001868
292.5405	0.001193
292.7511	0.001298
292.9618	0.000560
293.1724	0.000856
293.3831	0.000771
293.5938	0.001066
293.8045	-0.000430
294.0152	0.002310
294.2260	0.000097
294.4367	0.001130
294.6475	0.000835
294.8582	0.000624
295.0690	0.000181
295.2798	0.002205
295.4906	-0.000599
295.7015	0.001024
295.9123	0.000708
296.1232	0.000645
296.3340	-0.000536
296.5449	0.000750
296.7558	0.000729
296.9667	0.002395
297.1777	0.000413
297.3886	0.000518
297.5995	0.001551
297.8105	0.000750
298.0215	0.000919
298.2325	0.001088
298.4435	0.000097
298.6545	0.001762
298.8656	0.000582
299.0766	0.001362
299.2877	-0.000072
299.4988	0.002521
299.7099	0.000560
299.9210	0.001130
300.1321	0.001319
300.3432	0.001045
300.5544	0.000624
300.7655	0.002542
300.9767	0.000181
301.1879	0.000624
301.3991	0.001467
301.6103	0.002163
301.8215	0.001404
302.0328	0.000392
302.2441	0.001003
302.4553	0.001256
302.6666	0.000244
302.8779	0.001615
303.0892	0.000687
303.3006	0.001425
303.5119	0.000434
303.7233	0.001340
303.9346	-0.000557
304.1460	0.000750
304.3574	0.000898
304.5688	0.000329
304.7803	0.000202
304.9917	0.000539
305.2031	0.001425
305.4146	-0.000009
305.6261	0.000265
305.8376	0.001952
306.0491	0.001088
306.2606	0.000033
306.4722	0.001256
306.6837	0.001551
306.8953	-0.001126
307.1069	0.000898
307.3184	0.001636
307.5301	0.001003
307.7417	-0.000072
307.9533	0.000012
308.1650	0.000455
308.3766	0.001088
308.5883	0.000413
308.8000	0.001256
309.0117	0.000687
309.2234	0.000771
309.4351	0.000898
309.6469	0.000856
309.8586	-0.000409
310.0704	0.001973
310.2822	0.000181
310.4940	0.000856
310.7058	0.001910
310.9176	0.001741
311.1295	0.001214
311.3413	0.002352
311.5532	0.001362
311.7651	0.000624
311.9770	0.000413
312.1889	0.001383
312.4008	-0.000220
312.6127	0.000139
312.8247	-0.000494
313.0366	0.000940
313.2486	0.000835
313.4606	0.001045
313.6726	0.000771
313.8846	0.001530
314.0967	0.000919
314.3087	0.000982
314.5208	0.000898
314.7328	0.001319
314.9449	0.000244
315.1570	0.001172
315.3692	0.000455
315.5813	0.001319
315.7934	-0.000346
316.0056	0.000982
316.2177	0.001024
316.4299	0.000181
316.6421	0.001467
316.8543	0.000877
317.0666	0.001615
317.2788	0.000856
317.4911	0.000118
317.7033	0.001593
317.9156	-0.000093
318.1279	0.001425
318.3402	-0.000557
318.5525	0.000518
318.7649	0.001868
318.9772	0.002057
319.1896	0.001003
319.4019	-0.000114
319.6143	0.001340
319.8267	0.002584
320.0392	0.001362
320.2516	0.000097
320.4640	-0.000599
320.6765	0.001467
320.8890	0.000835
321.1014	0.001846
321.3139	0.000265
321.5265	0.000434
321.7390	0.000202
321.9515	0.000097
322.1641	0.000940
322.3766	-0.000557
322.5892	0.002627
322.8018	0.001088
323.0144	0.000729
323.2270	0.000792
323.4397	-0.000072
323.6523	-0.000557
323.8650	0.002289
324.0777	0.002395
324.2904	0.001340
324.5031	0.000539
324.7158	0.000497
324.9285	-0.000304
325.1412	0.000307
325.3540	0.000202
325.5668	0.001973
325.7796	0.002015
325.9924	0.001193
326.2052	0.001319
326.4180	0.000813
326.6308	0.000708
326.8437	0.000687
327.0566	0.002395
327.2694	0.000687
327.4823	0.001593
327.6952	0.000666
327.9082	0.000919
328.1211	0.000455
328.3340	0.000877
328.5470	0.001088
328.7600	-0.000156
328.9730	0.000160
329.1860	0.001783
329.3990	0.001088
329.6120	0.001509
329.8251	-0.000262
330.0381	0.001298
330.2512	0.001319
330.4643	0.001003
330.6774	0.000054
330.8905	0.001846
331.1036	0.001593
331.3167	0.002057
331.5299	-0.000156
331.7431	0.001615
331.9562	0.000518
332.1694	0.001045
332.3826	0.000497
332.5959	0.002690
332.8091	0.000265
333.0223	0.000097
333.2356	0.000413
333.4489	0.000877
333.6622	0.001383
333.8755	0.001425
334.0888	-0.000557
334.3021	0.000518
334.5154	-0.000283
334.7288	0.001319
334.9422	0.001868
335.1555	0.002627
335.3689	0.000181
335.5823	0.000223
335.7958	0.001404
336.0092	0.001214
336.2227	0.000371
336.4361	0.001172
336.6496	0.002289
336.8631	-0.000409
337.0766	-0.000283
337.2901	0.001889
337.5036	0.000097
337.7172	0.001551
337.9307	0.000729
338.1443	-0.000072
338.3579	-0.000093
338.5715	0.000771
338.7851	0.001319
338.9987	0.001130
339.2124	0.000813
339.4260	0.001783
339.6397	0.000582
339.8533	0.001066
340.0670	0.000813
340.2807	0.001572
340.4945	0.000666
340.7082	0.000223
340.9219	-0.000199
341.1357	0.002057
341.3495	0.001551
341.5633	0.002036
341.7771	-0.001063
341.9909	0.000982
342.2047	0.001678
342.4185	0.000307
342.6324	0.001298
342.8463	-0.000030
343.0601	0.001277
343.2740	0.002036
343.4879	0.000181
343.7019	0.002331
343.9158	0.002036
344.1297	0.001172
344.3437	0.001109
344.5577	0.000750
344.7717	0.000434
344.9857	0.001340
345.1997	0.000792
345.4137	0.002943
345.6277	0.000961
345.8418	0.001910
346.0559	0.000455
346.2699	0.000560
346.4840	0.000455
346.6981	0.000624
346.9123	0.000813
347.1264	0.001572
347.3406	0.000856
347.5547	-0.000283
347.7689	0.000539
347.9831	0.001130
348.1973	-0.000515
348.4115	0.001973
348.6257	0.001762
348.8400	0.001467
349.0542	0.000603
349.2685	0.000856
349.4828	0.002163
349.6971	0.001214
349.9114	0.000982
350.1257	0.001362
350.3400	0.001045
350.5544	0.000708
350.7687	0.001214
350.9831	0.000792
351.1975	0.001425
351.4119	0.000982
351.6263	0.001151
351.8407	0.001277
352.0552	-0.000367
352.2696	0.002142
352.4841	0.000835
352.6986	0.000307
352.9131	0.000329
353.1276	-0.000030
353.3421	0.001130
353.5566	0.000097
353.7712	0.000139
353.9858	0.001931
354.2003	0.000097
354.4149	0.001530
354.6295	0.000118
354.8441	0.001804
355.0588	-0.000557
355.2734	0.000497
355.4881	0.001678
355.7027	0.001572
355.9174	-0.000262
356.1321	0.000835
356.3468	0.000265
356.5615	0.001467
356.7763	0.000687
356.9910	0.000560
357.2058	0.000181
357.4206	0.001636
357.6353	0.000286
357.8501	-0.000452
358.0650	0.000687
358.2798	0.002753
358.4946	0.001298
358.7095	0.001024
358.9243	0.000286
359.1392	0.001214
359.3541	-0.000325
359.5690	0.000940
359.7839	0.000835
359.9989	0.001783
360.2138	-0.000072
360.4288	0.001657
360.6438	0.000877
360.8587	0.002331
361.0737	0.000940
361.2888	0.002395
361.5038	0.001383
361.7188	0.000603
361.9339	0.001509
362.1489	0.000961
362.3640	0.000181
362.5791	0.000708
362.7942	0.002015
363.0093	0.001066
363.2245	0.001088
363.4396	0.001446
363.6548	-0.000641
363.8699	0.001362
364.0851	-0.000936
364.3003	0.002584
364.5155	0.001088
364.7308	0.000582
364.9460	0.000835
365.1612	0.001762
365.3765	0.000560
365.5918	0.000961
365.8071	-0.000156
366.0224	0.000265
366.2377	-0.000199
366.4530	0.002015
366.6684	0.000329
366.8837	0.001066
367.0991	0.001298
367.3145	0.001193
367.5299	0.001699
367.7453	0.000940
367.9607	0.000118
368.1761	0.001889
368.3916	-0.000199
368.6070	0.000961
368.8225	0.002078
369.0380	0.000160
369.2535	0.001952
369.4690	0.000856
369.6845	-0.000388
369.9001	0.001509
370.1156	0.000708
370.3312	-0.000072
370.5468	0.000265
370.7624	0.002352
370.9780	0.000708
371.1936	0.002078
371.4092	0.000792
371.6249	0.000560
371.8405	0.000265
372.0562	0.001404
372.2719	0.001973
372.4876	0.001362
372.7033	-0.000430
372.9190	0.001488
373.1348	-0.000515
373.3505	0.000603
373.5663	0.000560
373.7820	0.001551
373.9978	0.001467
374.2136	0.001804
374.4294	0.001657
374.6453	0.000582
374.8611	0.000940
375.0770	0.001235
375.2928	0.001593
375.5087	0.001846
375.7246	0.000919
375.9405	0.000856
376.1564	0.000603
376.3724	0.001973
376.5883	0.001172
376.8043	-0.000262
377.0203	0.001952
377.2362	0.000645
377.4522	0.000097
377.6682	0.000813
377.8843	0.001720
378.1003	0.001066
378.3164	0.000539
378.5324	0.002121
378.7485	0.000835
378.9646	0.001109
379.1807	-0.001063
379.3968	0.001193
379.6129	0.001741
379.8291	0.000286
380.0452	0.000097
380.2614	0.001931
380.4776	0.002627
380.6938	0.001657
380.9100	0.000286
381.1262	0.001636
381.3424	0.001340
381.5587	0.002437
381.7749	0.000940
381.9912	0.001298
382.2075	-0.000009
382.4238	0.001994
382.6401	0.001024
382.8564	0.000413
383.0728	0.000750
383.2891	0.000160
383.5055	0.001615
383.7219	0.002774
383.9382	0.002395
384.1546	0.001340
384.3711	-0.000072
384.5875	0.000687
384.8039	0.000919
385.0204	0.001235
385.2368	0.001088
385.4533	0.002121
385.6698	0.001509
385.8863	0.001488
386.1028	-0.000156
386.3194	0.000160
386.5359	0.000835
386.7525	0.000813
386.9690	0.000455
387.1856	0.001741
387.4022	0.002500
387.6188	0.002036
387.8355	0.001383
388.0521	0.002374
388.2687	0.003217
388.4854	0.002563
388.7021	0.001615
388.9188	0.001804
389.1355	0.002584
389.3522	0.002500
389.5689	0.002521
389.7856	0.003828
390.0024	0.004334
390.2192	0.002943
390.4359	0.003744
390.6527	0.003638
390.8695	0.002057
391.0863	0.004292
391.3032	0.002416
391.5200	0.003090
391.7369	0.004545
391.9537	0.005494
392.1706	0.004587
392.3875	0.006442
392.6044	0.005367
392.8213	0.005852
393.0383	0.004735
393.2552	0.007476
393.4722	0.005473
393.6891	0.008487
393.9061	0.005473
394.1231	0.007033
394.3401	0.006906
394.5572	0.006569
394.7742	0.006506
394.9912	0.007939
395.2083	0.008424
395.4254	0.009352
395.6425	0.007265
395.8596	0.007497
396.0767	0.007960
396.2938	0.008698
396.5109	0.009984
396.7281	0.010005
396.9453	0.010406
397.1624	0.009331
397.3796	0.010532
397.5968	0.012303
397.8140	0.010638
398.0313	0.013273
398.2485	0.012388
398.4658	0.012746
398.6830	0.012999
398.9003	0.013400
399.1176	0.012451
399.3349	0.013716
399.5522	0.014159
399.7696	0.012767
399.9869	0.012852
400.2043	0.013315
400.4216	0.012050
400.6390	0.014285
400.8564	0.014897
401.0738	0.015508
401.2912	0.013842
401.5087	0.013632
401.7261	0.015192
401.9436	0.015192
402.1610	0.015255
402.3785	0.014053
402.5960	0.015719
402.8135	0.016520
403.0310	0.017553
403.2486	0.016457
403.4661	0.017363
403.6837	0.017131
403.9013	0.015698
404.1189	0.018207
404.3365	0.018038
404.5541	0.016056
404.7717	0.017806
404.9893	0.019197
405.2070	0.017426
405.4246	0.021264
405.6423	0.018333
405.8600	0.019577
406.0777	0.019661
406.2954	0.017743
406.5131	0.018944
406.7309	0.019050
406.9486	0.016731
407.1664	0.016984
407.3842	0.018143
407.6020	0.017279
407.8198	0.018902
408.0376	0.017384
408.2554	0.019155
408.4733	0.020715
408.6911	0.020083
408.9090	0.017911
409.1269	0.020462
409.3448	0.019598
409.5627	0.019240
409.7806	0.019155
409.9985	0.019050
410.2165	0.020610
410.4344	0.019176
410.6524	0.017869
410.8704	0.020146
411.0884	0.020167
411.3064	0.020568
411.5244	0.021053
411.7424	0.020736
411.9605	0.021074
412.1785	0.020568
412.3966	0.019809
412.6147	0.021938
412.8328	0.021137
413.0509	0.020062
413.2690	0.022086
413.4871	0.021390
413.7053	0.022866
413.9234	0.022781
414.1416	0.021727
414.3598	0.023034
414.5780	0.021685
414.7962	0.020926
415.0144	0.023920
415.2326	0.022739
415.4509	0.021369
415.6692	0.021538
415.8874	0.022297
416.1057	0.022613
416.3240	0.023583
416.5423	0.022001
416.7606	0.024658
416.9790	0.022507
417.1973	0.024067
417.4157	0.022592
417.6341	0.022001
417.8524	0.022381
418.0708	0.021538
418.2893	0.023625
418.5077	0.023056
418.7261	0.023435
418.9446	0.023456
419.1630	0.025543
419.3815	0.024489
419.6000	0.023941
419.8185	0.023414
420.0370	0.024679
420.2555	0.025607
420.4741	0.024932
420.6926	0.023119
420.9112	0.027019
421.1298	0.025290
421.3483	0.027230
421.5669	0.027167
421.7856	0.029507
422.0042	0.027947
422.2228	0.029233
422.4415	0.027420
422.6601	0.026176
422.8788	0.026408
423.0975	0.027736
423.3162	0.026935
423.5349	0.027483
423.7536	0.024784
423.9724	0.026281
424.1911	0.026281
424.4099	0.024447
424.6287	0.023688
424.8475	0.023983
425.0663	0.026534
425.2851	0.026555
425.5039	0.025079
425.7228	0.024869
425.9416	0.025480
426.1605	0.024616
426.3793	0.023372
426.5982	0.023203
426.8171	0.022318
427.0361	0.024363
427.2550	0.026302
427.4739	0.025712
427.6929	0.026661
427.9118	0.024784
428.1308	0.022781
428.3498	0.025079
428.5688	0.024700
428.7878	0.025691
429.0068	0.023456
429.2259	0.026998
429.4449	0.024552
429.6640	0.026745
429.8831	0.027230
430.1022	0.028010
430.3213	0.028558
430.5404	0.029275
430.7595	0.027504
430.9787	0.027841
