# Wavelength (nm)	Intensity (a.u.)
197.7802	0.000731
197.9842	-0.001357
198.1882	0.000056
198.3922	-0.000366
198.5963	-0.000134
198.8003	0.000225
199.0044	0.001006
199.2085	0.000478
199.4126	-0.000724
199.6168	0.000098
199.8209	0.000731
200.0251	0.000394
200.2292	-0.000134
200.4334	-0.001146
200.6376	-0.000091
200.8418	-0.000113
201.0461	0.000014
201.2503	0.000563
201.4546	-0.000851
201.6589	0.000077
201.8631	0.001322
202.0674	0.000141
202.2718	0.000141
202.4761	-0.000746
202.6805	0.001132
202.8848	0.000141
203.0892	-0.000661
203.2936	-0.001020
203.4980	0.000774
203.7024	0.001132
203.9069	-0.000492
204.1113	-0.000598
204.3158	0.000056
204.5203	-0.001357
204.7248	-0.000577
204.9293	-0.000661
205.1338	-0.000134
205.3384	-0.000471
205.5430	0.001280
205.7475	-0.000049
205.9521	0.000647
206.1567	0.000436
206.3614	0.000753
206.5660	0.000267
206.7706	-0.000914
206.9753	-0.001484
207.1800	0.000499
207.3847	0.000499
207.5894	-0.000134
207.7941	-0.000155
207.9989	0.000352
208.2036	0.000162
208.4084	-0.001231
208.6132	0.001111
208.8180	0.000478
209.0228	0.001196
209.2276	0.000520
209.4325	0.000267
209.6373	0.001639
209.8422	-0.000682
210.0471	0.000668
210.2520	0.000373
210.4569	0.000520
210.6618	-0.000619
210.8668	-0.000134
211.0718	0.000436
211.2767	0.001428
211.4817	-0.000155
211.6867	0.000900
211.8918	-0.000450
212.0968	0.000753
212.3018	-0.001442
212.5069	0.001576
212.7120	-0.001041
212.9171	0.000415
213.1222	-0.000872
213.3273	0.000710
213.5325	-0.000703
213.7376	0.000731
213.9428	-0.000345
214.1480	0.000837
214.3532	-0.000640
214.5584	0.000499
214.7636	0.000331
214.9689	0.001006
215.1741	-0.001653
215.3794	0.000774
215.5847	0.000499
215.7900	0.000731
215.9953	-0.001484
216.2007	0.000267
216.4060	-0.000830
216.6114	0.000520
216.8168	0.001301
217.0222	0.000225
217.2276	0.000309
217.4330	0.000352
217.6384	-0.000893
217.8439	0.000499
218.0494	-0.000577
218.2548	0.000879
218.4603	-0.000429
218.6659	0.000098
218.8714	0.000499
219.0769	-0.000366
219.2825	-0.000260
219.4881	0.000120
219.6936	0.000499
219.8992	0.001787
220.1049	0.000647
220.3105	0.000900
220.5161	0.000394
220.7218	0.000288
220.9275	-0.000281
221.1332	0.000204
221.3389	-0.000176
221.5446	-0.000091
221.7503	-0.001379
221.9561	0.001027
222.1618	-0.000091
222.3676	0.001259
222.5734	-0.000661
222.7792	-0.000513
222.9850	0.000077
223.1909	0.001048
223.3967	0.000183
223.6026	0.000436
223.8085	0.000373
224.0144	-0.000155
224.2203	-0.001273
224.4262	0.000098
224.6322	-0.000345
224.8381	0.000647
225.0441	-0.000070
225.2501	-0.000028
225.4561	-0.000134
225.6621	-0.000324
225.8681	-0.000492
226.0742	-0.000830
226.2802	0.000731
226.4863	0.000204
226.6924	-0.000281
226.8985	0.000731
227.1046	-0.000113
227.3107	0.000098
227.5169	-0.000239
227.7230	0.000499
227.9292	0.000014
228.1354	0.000605
228.3416	-0.000007
228.5478	0.000331
228.7541	0.000014
228.9603	-0.000893
229.1666	0.000373
229.3729	-0.000851
229.5791	0.000394
229.7855	-0.000408
229.9918	-0.001336
230.1981	-0.000218
230.4045	-0.001104
230.6108	-0.000049
230.8172	0.001111
231.0236	0.000035
231.2300	0.000478
231.4364	-0.000197
231.6429	-0.000113
231.8493	-0.000872
232.0558	-0.000366
232.2623	0.000605
232.4688	0.000035
232.6753	0.000014
232.8818	0.000478
233.0884	0.000077
233.2949	-0.001906
233.5015	-0.001948
233.7081	-0.001041
233.9147	-0.000070
234.1213	0.000689
234.3279	0.001006
234.5346	0.000352
234.7413	-0.000577
234.9479	0.001111
235.1546	0.002082
235.3613	0.000352
235.5680	0.000120
235.7748	0.000837
235.9815	0.000246
236.1883	-0.000197
236.3951	0.000563
236.6018	0.000098
236.8087	-0.000113
237.0155	-0.000492
237.2223	0.000056
237.4292	-0.000914
237.6360	0.000014
237.8429	-0.000345
238.0498	0.000056
238.2567	-0.001357
238.4636	0.002061
238.6706	-0.000070
238.8775	-0.000134
239.0845	-0.000070
239.2915	-0.000661
239.4985	-0.000935
239.7055	0.000309
239.9125	-0.000809
240.1195	-0.000091
240.3266	0.000183
240.5337	0.000288
240.7407	0.000795
240.9478	0.001217
241.1549	-0.000176
241.3621	0.000183
241.5692	-0.000007
241.7764	0.000879
241.9835	-0.000767
242.1907	-0.000155
242.3979	0.001069
242.6051	0.001175
242.8124	0.000246
243.0196	0.000605
243.2269	0.000035
243.4341	0.001048
243.6414	-0.000260
243.8487	0.000331
244.0560	0.000309
244.2634	0.000647
244.4707	0.000900
244.6781	0.001322
244.8854	0.000373
245.0928	-0.000028
245.3002	-0.000535
245.5076	-0.000260
245.7151	-0.001547
245.9225	-0.000113
246.1300	-0.000387
246.3375	-0.000366
246.5449	-0.000788
246.7524	0.000077
246.9600	0.000964
247.1675	-0.001041
247.3750	0.000731
247.5826	0.000774
247.7902	-0.000155
247.9978	0.000731
248.2054	0.001090
248.4130	0.001428
248.6206	0.000774
248.8283	0.000415
249.0359	0.000183
249.2436	0.000120
249.4513	-0.001231
249.6590	-0.000281
249.8667	0.001280
250.0745	-0.000767
250.2822	-0.000957
250.4900	0.000415
250.6978	0.000415
250.9056	0.001407
251.1134	-0.000366
251.3212	0.000415
251.5290	-0.001336
251.7369	-0.000007
251.9447	0.001154
252.1526	0.000267
252.3605	0.000056
252.5684	-0.000028
252.7763	-0.000872
252.9843	0.000415
253.1922	0.001027
253.4002	0.000478
253.6082	-0.000809
253.8162	0.000900
254.0242	-0.000598
254.2322	0.001681
254.4402	0.000985
254.6483	0.000141
254.8564	-0.000471
255.0644	0.000246
255.2725	-0.000281
255.4806	0.000014
255.6888	0.000731
255.8969	-0.000049
256.1051	-0.001505
256.3132	0.000309
256.5214	0.000943
256.7296	-0.001041
256.9378	-0.000851
257.1460	0.000098
257.3543	-0.001041
257.5625	0.000415
257.7708	0.000520
257.9791	0.000943
258.1874	-0.000724
258.3957	0.002272
258.6040	0.000056
258.8124	0.000309
259.0207	0.000141
259.2291	0.001217
259.4375	-0.000049
259.6459	-0.000513
259.8543	-0.000429
260.0627	0.001027
260.2711	-0.001041
260.4796	0.000162
260.6881	-0.000492
260.8965	0.000225
261.1050	0.000288
261.3135	-0.000028
261.5221	-0.000387
261.7306	0.000014
261.9392	-0.001104
262.1477	-0.000809
262.3563	-0.001252
262.5649	-0.000577
262.7735	-0.000345
262.9822	0.000563
263.1908	0.000731
263.3995	0.000183
263.6081	0.000225
263.8168	0.000689
264.0255	-0.001611
264.2342	0.000056
264.4429	-0.000682
264.6517	0.001533
264.8604	-0.000197
265.0692	0.000077
265.2780	-0.000176
265.4868	0.000246
265.6956	-0.000239
265.9044	0.001069
266.1133	0.001343
266.3221	-0.000113
266.5310	-0.000471
266.7399	0.000478
266.9488	-0.001315
267.1577	0.000014
267.3666	-0.000049
267.5755	0.000710
267.7845	-0.000281
267.9935	0.001365
268.2024	-0.000914
268.4114	0.000288
268.6205	-0.000049
268.8295	0.000183
269.0385	-0.000830
269.2476	0.000120
269.4566	-0.000091
269.6657	-0.001020
269.8748	0.001175
270.0839	0.001322
270.2931	0.000098
270.5022	0.000394
270.7114	0.001154
270.9205	0.001006
271.1297	0.000098
271.3389	0.000605
271.5481	0.000394
271.7573	-0.000134
271.9666	0.000584
272.1758	-0.000239
272.3851	-0.000218
272.5944	-0.000197
272.8037	0.000964
273.0130	0.001407
273.2223	-0.000450
273.4316	-0.000429
273.6410	-0.001590
273.8504	0.000520
274.0597	0.000584
274.2691	-0.002012
274.4785	0.000668
274.6880	0.000457
274.8974	0.000077
275.1069	0.000795
275.3163	-0.000893
275.5258	-0.000113
275.7353	0.000141
275.9448	-0.000619
276.1543	-0.000239
276.3639	0.000288
276.5734	0.001449
276.7830	0.001301
276.9926	0.000204
277.2022	0.001322
277.4118	0.000225
277.6214	-0.000281
277.8310	0.000141
278.0407	0.000141
278.2503	-0.000619
278.4600	-0.000809
278.6697	-0.000091
278.8794	0.000246
279.0891	0.000542
279.2989	0.001217
279.5086	-0.000134
279.7184	0.000943
279.9281	0.000141
280.1379	0.000985
280.3477	-0.000619
280.5576	0.000837
280.7674	0.000056
280.9772	0.000056
281.1871	0.001006
281.3970	-0.000872
281.6069	0.001470
281.8168	0.000964
282.0267	0.000457
282.2366	0.000900
282.4466	-0.000345
282.6565	-0.000387
282.8665	-0.000450
283.0765	0.000120
283.2865	-0.000218
283.4965	-0.000197
283.7065	-0.000408
283.9166	0.000309
284.1266	0.000352
284.3367	-0.000070
284.5468	-0.000176
284.7569	0.000710
284.9670	0.000077
285.1771	0.000731
285.3873	0.000373
285.5974	0.001301
285.8076	0.000731
286.0178	-0.000218
286.2280	-0.000387
286.4382	-0.000176
286.6484	-0.001463
286.8587	-0.000007
287.0689	-0.000366
287.2792	0.000774
287.4895	-0.000070
287.6998	-0.000218
287.9101	0.000014
288.1204	0.000415
288.3308	-0.000239
288.5411	-0.000028
288.7515	0.000900
288.9619	0.001006
289.1723	0.000141
289.3827	-0.000513
289.5931	0.000141
289.8035	0.001132
290.0140	0.000668
290.2245	-0.000028
290.4349	-0.000830
290.6454	-0.000239
290.8559	0.000035
291.0665	-0.000957
291.2770	0.000373
291.4875	0.000415
291.6981	-0.000281
291.9087	-0.000746
292.1193	-0.001125
292.3299	0.001090
292.5405	0.000077
292.7511	-0.000535
292.9618	0.000816
293.1724	0.000647
293.3831	0.000373
293.5938	-0.000513
293.8045	-0.000619
294.0152	-0.000366
294.2260	-0.000176
294.4367	0.001533
294.6475	0.002061
294.8582	0.000520
295.0690	-0.000239
295.2798	0.001787
295.4906	0.000225
295.7015	-0.000661
295.9123	-0.000598
296.1232	-0.000408
296.3340	-0.000788
296.5449	0.000858
296.7558	0.000288
296.9667	-0.001294
297.1777	0.000288
297.3886	-0.000197
297.5995	-0.001716
297.8105	0.000056
298.0215	-0.000598
298.2325	-0.000387
298.4435	0.000731
298.6545	0.000014
298.8656	-0.000408
299.0766	-0.000007
299.2877	-0.001062
299.4988	-0.001020
299.7099	-0.001273
299.9210	0.001090
300.1321	-0.000598
300.3432	-0.000028
300.5544	0.000098
300.7655	-0.000070
300.9767	-0.000535
301.1879	0.000246
301.3991	0.001154
301.6103	-0.000155
301.8215	-0.000830
302.0328	0.000520
302.2441	0.000225
302.4553	-0.000492
302.6666	0.001259
302.8779	-0.001083
303.0892	-0.000450
303.3006	0.001259
303.5119	0.000774
303.7233	0.000753
303.9346	0.000098
304.1460	0.000858
304.3574	-0.000577
304.5688	0.000246
304.7803	-0.000366
304.9917	0.000478
305.2031	-0.000598
305.4146	0.001069
305.6261	0.000499
305.8376	-0.000366
306.0491	-0.000935
306.2606	0.001976
306.4722	0.000162
306.6837	-0.000028
306.8953	-0.000429
307.1069	0.001259
307.3184	-0.000999
307.5301	-0.000028
307.7417	0.000647
307.9533	-0.000830
308.1650	0.000077
308.3766	0.000668
308.5883	0.000436
308.8000	-0.000682
309.0117	0.001027
309.2234	0.000056
309.4351	0.002272
309.6469	0.000056
309.8586	-0.000239
310.0704	0.000647
310.2822	-0.000218
310.4940	0.001090
310.7058	-0.001189
310.9176	0.000563
311.1295	-0.001146
311.3413	0.000077
311.5532	0.000964
311.7651	-0.000281
311.9770	0.000710
312.1889	0.000331
312.4008	0.000520
312.6127	0.000436
312.8247	0.001006
313.0366	-0.000113
313.2486	0.000373
313.4606	0.000753
313.6726	0.000246
313.8846	0.000436
314.0967	-0.000239
314.3087	-0.000091
314.5208	-0.001252
314.7328	0.000352
314.9449	0.000014
315.1570	0.000077
315.3692	0.000605
315.5813	0.001386
315.7934	-0.000957
316.0056	0.001280
316.2177	0.000478
316.4299	0.001259
316.6421	0.000246
316.8543	0.001090
317.0666	-0.000788
317.2788	0.000394
317.4911	-0.000682
317.7033	-0.000830
317.9156	-0.000366
318.1279	-0.000682
318.3402	0.000056
318.5525	0.000816
318.7649	-0.001231
318.9772	-0.000113
319.1896	0.000710
319.4019	0.001428
319.6143	-0.000513
319.8267	-0.000197
320.0392	0.000331
320.2516	0.000436
320.4640	0.000478
320.6765	0.000689
320.8890	-0.000387
321.1014	-0.000598
321.3139	-0.000471
321.5265	0.001132
321.7390	0.000098
321.9515	-0.000007
322.1641	-0.000914
322.3766	-0.000914
322.5892	0.000499
322.8018	0.001132
323.0144	-0.000661
323.2270	0.001449
323.4397	0.001027
323.6523	0.000584
323.8650	0.000225
324.0777	-0.000260
324.2904	0.000584
324.5031	0.000753
324.7158	0.000457
324.9285	0.001386
325.1412	-0.001969
325.3540	0.000288
325.5668	-0.000492
325.7796	0.001069
325.9924	0.000858
326.2052	-0.000070
326.4180	-0.000197
326.6308	0.000626
326.8437	0.000816
327.0566	-0.000872
327.2694	-0.000703
327.4823	-0.000049
327.6952	0.000415
327.9082	0.002019
328.1211	0.000584
328.3340	0.000162
328.5470	0.000499
328.7600	-0.000978
328.9730	0.000352
329.1860	0.001301
329.3990	0.000626
329.6120	-0.000113
329.8251	0.000415
330.0381	-0.001379
330.2512	-0.000387
330.4643	0.000141
330.6774	-0.000619
330.8905	0.000204
331.1036	-0.000366
331.3167	0.001238
331.5299	-0.001379
331.7431	0.000183
331.9562	-0.000007
332.1694	0.001322
332.3826	0.000056
332.5959	-0.000113
332.8091	-0.000577
333.0223	0.000394
333.2356	0.000331
333.4489	0.000858
333.6622	0.000035
333.8755	-0.000007
334.0888	-0.001252
334.3021	0.000246
334.5154	-0.000324
334.7288	0.000478
334.9422	0.000436
335.1555	0.001322
335.3689	-0.001379
335.5823	-0.000070
335.7958	-0.000197
336.0092	0.000394
336.2227	-0.000155
336.4361	0.000077
336.6496	-0.001125
336.8631	0.001238
337.0766	-0.000851
337.2901	0.000626
337.5036	0.000309
337.7172	-0.001062
337.9307	0.000141
338.1443	0.000162
338.3579	0.000331
338.5715	0.000542
338.7851	-0.000830
338.9987	-0.000746
339.2124	0.000225
339.4260	-0.000324
339.6397	-0.000155
339.8533	-0.000640
340.0670	-0.000070
340.2807	0.001238
340.4945	0.000288
340.7082	0.001554
340.9219	-0.000028
341.1357	-0.000387
341.3495	0.001259
341.5633	-0.000746
341.7771	-0.000535
341.9909	-0.000049
342.2047	-0.000134
342.4185	0.000309
342.6324	-0.000239
342.8463	0.000921
343.0601	-0.001336
343.2740	-0.000260
343.4879	0.000647
343.7019	0.001892
343.9158	-0.000682
344.1297	0.000436
344.3437	-0.000703
344.5577	0.000943
344.7717	0.000162
344.9857	-0.001231
345.1997	0.000563
345.4137	0.000436
345.6277	-0.000302
345.8418	0.000542
346.0559	0.001322
346.2699	0.000352
346.4840	-0.001168
346.6981	0.000373
346.9123	0.000204
347.1264	-0.001801
347.3406	0.000183
347.5547	0.000668
347.7689	-0.000682
347.9831	0.000710
348.1973	-0.000113
348.4115	0.000098
348.6257	-0.000724
348.8400	-0.000070
349.0542	0.000225
349.2685	-0.000703
349.4828	0.000689
349.6971	-0.000028
349.9114	0.000267
350.1257	0.000710
350.3400	0.000985
350.5544	0.000457
350.7687	0.000563
350.9831	-0.000830
351.1975	0.000309
351.4119	0.001217
351.6263	-0.000619
351.8407	0.001681
352.0552	-0.000281
352.2696	0.000183
352.4841	0.000162
352.6986	0.000879
352.9131	-0.000577
353.1276	-0.000408
353.3421	-0.000619
353.5566	0.000689
353.7712	0.000331
353.9858	-0.000218
354.2003	-0.000450
354.4149	0.001470
354.6295	-0.000366
354.8441	-0.001189
355.0588	0.000605
355.2734	0.000035
355.4881	-0.000872
355.7027	-0.000746
355.9174	-0.000155
356.1321	0.002209
356.3468	-0.000007
356.5615	-0.000450
356.7763	0.000183
356.9910	0.000014
357.2058	-0.000619
357.4206	-0.000366
357.6353	0.000879
357.8501	-0.000070
358.0650	0.000668
358.2798	0.001090
358.4946	-0.000788
358.7095	0.000394
358.9243	0.000225
359.1392	-0.000007
359.3541	-0.001189
359.5690	-0.000429
359.7839	-0.001379
359.9989	0.000225
360.2138	-0.000556
360.4288	0.000014
360.6438	0.000141
360.8587	0.001027
361.0737	-0.000387
361.2888	0.000246
361.5038	0.001196
361.7188	-0.000471
361.9339	0.000394
362.1489	0.001006
362.3640	-0.000788
362.5791	0.000795
362.7942	0.000647
363.0093	-0.001062
363.2245	0.000309
363.4396	-0.000577
363.6548	-0.000408
363.8699	0.000837
364.0851	0.000668
364.3003	0.000985
364.5155	-0.000281
364.7308	0.000331
364.9460	-0.000239
365.1612	-0.000556
365.3765	-0.001336
365.5918	0.001343
365.8071	0.000415
366.0224	0.000795
366.2377	0.000605
366.4530	0.000626
366.6684	-0.000535
366.8837	0.000900
367.0991	-0.000197
367.3145	-0.000450
367.5299	-0.000176
367.7453	0.000373
367.9607	0.000520
368.1761	0.000900
368.3916	0.000309
368.6070	0.000331
368.8225	-0.000260
369.0380	-0.000049
369.2535	0.000056
369.4690	0.000499
369.6845	-0.000957
369.9001	-0.000049
370.1156	-0.000746
370.3312	-0.000661
370.5468	-0.000851
370.7624	0.000035
370.9780	-0.000492
371.1936	-0.000239
371.4092	0.000225
371.6249	0.001154
371.8405	0.000457
372.0562	0.001175
372.2719	-0.000535
372.4876	0.000436
372.7033	-0.000577
372.9190	-0.000091
373.1348	0.001681
373.3505	0.000120
373.5663	0.001238
373.7820	-0.000450
373.9978	-0.000345
374.2136	0.000731
374.4294	-0.000260
374.6453	0.000246
374.8611	0.000077
375.0770	0.000225
375.2928	-0.000535
375.5087	0.000415
375.7246	-0.000935
375.9405	-0.000682
376.1564	0.000985
376.3724	-0.000007
376.5883	-0.000070
376.8043	0.000478
377.0203	-0.000935
377.2362	-0.000113
377.4522	-0.000767
377.6682	0.000309
377.8843	-0.000788
378.1003	-0.000324
378.3164	-0.000176
378.5324	-0.000155
378.7485	-0.000513
378.9646	-0.001020
379.1807	0.001280
379.3968	-0.000324
379.6129	-0.000809
379.8291	0.000731
380.0452	-0.000028
380.2614	0.002040
380.4776	-0.000218
380.6938	0.001196
380.9100	-0.000492
381.1262	0.000035
381.3424	-0.000176
381.5587	0.000394
381.7749	0.000457
381.9912	-0.000535
382.2075	0.000499
382.4238	0.000647
382.6401	-0.001168
382.8564	-0.000324
383.0728	-0.000914
383.2891	-0.000302
383.5055	0.000098
383.7219	0.000331
383.9382	-0.000218
384.1546	-0.000450
384.3711	0.000520
384.5875	0.001259
384.8039	0.000288
385.0204	0.001449
385.2368	-0.001611
385.4533	0.001512
385.6698	0.001132
385.8863	-0.000239
386.1028	-0.000007
386.3194	0.001428
386.5359	-0.000049
386.7525	0.000394
386.9690	-0.000556
387.1856	0.000352
387.4022	0.001343
387.6188	0.001913
387.8355	-0.000492
388.0521	0.000943
388.2687	0.001618
388.4854	0.001111
388.7021	0.000204
388.9188	0.001407
389.1355	0.001154
389.3522	0.000563
389.5689	0.001006
389.7856	0.001576
390.0024	0.001090
390.2192	0.001639
390.4359	0.002272
390.6527	0.002124
390.8695	0.001660
391.0863	0.002736
391.3032	0.002694
391.5200	0.002483
391.7369	0.002187
391.9537	0.003833
392.1706	0.001660
392.3875	0.002462
392.6044	0.002124
392.8213	0.003517
393.0383	0.002947
393.2552	0.003200
393.4722	0.003728
393.6891	0.004108
393.9061	0.003031
394.1231	0.002926
394.3401	0.003242
394.5572	0.005416
394.7742	0.005521
394.9912	0.004445
395.2083	0.004234
395.4254	0.003981
395.6425	0.003643
395.8596	0.004973
396.0767	0.003707
396.2938	0.006386
396.5109	0.005353
396.7281	0.005922
396.9453	0.005732
397.1624	0.005796
397.3796	0.006661
397.5968	0.006260
397.8140	0.006703
398.0313	0.007990
398.2485	0.007336
398.4658	0.008686
398.6830	0.008919
398.9003	0.007716
399.1176	0.008412
399.3349	0.008328
399.5522	0.009024
399.7696	0.009277
399.9869	0.009341
400.2043	0.008497
400.4216	0.009784
400.6390	0.008117
400.8564	0.009615
401.0738	0.010965
401.2912	0.009298
401.5087	0.008454
401.7261	0.007990
401.9436	0.009763
402.1610	0.009362
402.3785	0.010079
402.5960	0.010353
402.8135	0.010311
403.0310	0.011408
403.2486	0.011472
403.4661	0.010691
403.6837	0.011324
403.9013	0.011219
404.1189	0.010839
404.3365	0.010670
404.5541	0.012189
404.7717	0.012653
404.9893	0.012464
405.2070	0.011303
405.4246	0.012822
405.6423	0.012928
405.8600	0.012421
406.0777	0.014426
406.2954	0.014152
406.5131	0.012970
406.7309	0.011957
406.9486	0.012041
407.1664	0.012611
407.3842	0.013434
407.6020	0.013160
407.8198	0.011197
408.0376	0.013835
408.2554	0.011619
408.4733	0.013455
408.6911	0.014996
408.9090	0.013118
409.1269	0.013603
409.3448	0.013033
409.5627	0.013139
409.7806	0.015207
409.9985	0.014742
410.2165	0.015481
410.4344	0.013730
410.6524	0.014975
410.8704	0.016051
411.0884	0.014552
411.3064	0.015143
411.5244	0.015692
411.7424	0.015502
411.9605	0.014996
412.1785	0.013160
412.3966	0.014363
412.6147	0.016367
412.8328	0.017127
413.0509	0.016831
413.2690	0.016620
413.4871	0.015966
413.7053	0.015586
413.9234	0.016093
414.1416	0.016705
414.3598	0.014152
414.5780	0.017865
414.7962	0.016494
415.0144	0.017190
415.2326	0.017865
415.4509	0.016684
415.6692	0.016346
415.8874	0.015713
416.1057	0.016051
416.3240	0.016874
416.5423	0.018055
416.7606	0.017549
416.9790	0.017085
417.1973	0.018013
417.4157	0.017042
417.6341	0.017106
417.8524	0.017380
418.0708	0.016008
418.2893	0.018625
418.5077	0.016536
418.7261	0.016663
418.9446	0.018857
419.1630	0.017021
419.3815	0.018034
419.6000	0.016789
419.8185	0.017802
420.0370	0.017612
420.2555	0.017317
420.4741	0.017865
420.6926	0.020904
420.9112	0.021727
421.1298	0.019870
421.3483	0.021811
421.5669	0.020735
421.7856	0.022571
422.0042	0.023330
422.2228	0.022824
422.4415	0.022001
422.6601	0.022254
422.8788	0.022529
423.0975	0.021410
423.3162	0.023246
423.5349	0.021495
423.7536	0.020883
423.9724	0.020102
424.1911	0.021073
424.4099	0.021115
424.6287	0.019743
424.8475	0.020672
425.0663	0.021790
425.2851	0.020461
425.5039	0.021811
425.7228	0.021853
425.9416	0.019448
426.1605	0.021052
426.3793	0.019342
426.5982	0.019553
426.8171	0.018730
427.0361	0.018815
427.2550	0.021326
427.4739	0.020271
