# Wavelength	Intensity diff (sample - DMSO)
197.780200 0.000117
197.984200 -0.000766
198.188200 -0.000825
198.392200 0.000273
198.596300 0.000503
198.800300 -0.000368
199.004400 -0.000237
199.208500 -0.000713
199.412600 0.000296
199.616800 -0.000319
199.820900 0.001073
200.025100 -0.000697
200.229200 0.000125
200.433400 -0.001061
200.637600 -0.000407
200.841800 -0.000473
201.046100 -0.000147
201.250300 -0.001733
201.454600 -0.000720
201.658900 -0.001131
201.863100 0.000807
202.067400 -0.000716
202.271800 -0.000403
202.476100 -0.001146
202.680500 -0.000024
202.884800 -0.001419
203.089200 -0.000871
203.293600 -0.000133
203.498000 -0.000269
203.702400 0.000326
203.906900 0.000430
204.111300 0.000715
204.315800 0.000106
204.520300 -0.001000
204.724800 -0.000077
204.929300 -0.000072
205.133800 -0.000269
205.338400 -0.000653
205.543000 -0.000864
205.747500 -0.000888
205.952100 -0.000013
206.156700 -0.001159
206.361400 0.001338
206.566000 0.000480
206.770600 -0.000804
206.975300 -0.000449
207.180000 -0.000097
207.384700 -0.000140
207.589400 0.000360
207.794100 -0.000125
207.998900 0.000032
208.203600 -0.000793
208.408400 0.000016
208.613200 -0.000639
208.818000 0.000152
209.022800 -0.000371
209.227600 0.000641
209.432500 -0.000660
209.637300 -0.000199
209.842200 -0.000329
210.047100 0.000751
210.252000 0.000359
210.456900 -0.000101
210.661800 -0.001353
210.866800 -0.000224
211.071800 -0.001193
211.276700 0.000655
211.481700 -0.000481
211.686700 -0.000083
211.891800 -0.000399
212.096800 -0.001373
212.301800 -0.000404
212.506900 -0.001149
212.712000 -0.000888
212.917100 -0.001113
213.122200 -0.000579
213.327300 -0.001345
213.532500 0.000437
213.737600 0.000039
213.942800 0.000500
214.148000 0.000297
214.353200 0.000465
214.558400 0.000377
214.763600 -0.002094
214.968900 -0.000217
215.174100 -0.001496
215.379400 0.001239
215.584700 -0.000505
215.790000 0.000160
215.995300 -0.001159
216.200700 0.000479
216.406000 -0.000459
216.611400 0.000514
216.816800 -0.000048
217.022200 0.000258
217.227600 -0.000987
217.433000 0.000213
217.638400 -0.000389
217.843900 -0.000072
218.049400 0.000416
218.254800 -0.001292
218.460300 -0.001511
218.665900 -0.000193
218.871400 -0.000920
219.076900 -0.000477
219.282500 -0.001005
219.488100 -0.001086
219.693600 0.000265
219.899200 -0.001113
220.104900 -0.001142
220.310500 0.000307
220.516100 0.000697
220.721800 0.000346
220.927500 -0.000875
221.133200 0.000033
221.338900 0.000068
221.544600 -0.000449
221.750300 -0.000793
221.956100 0.000191
222.161800 0.000170
222.367600 -0.000762
222.573400 -0.000333
222.779200 0.001176
222.985000 0.001506
223.190900 -0.000245
223.396700 0.000314
223.602600 -0.000034
223.808500 0.000103
224.014400 0.000019
224.220300 -0.000235
224.426200 -0.000031
224.632200 -0.000006
224.838100 0.000307
225.044100 -0.000231
225.250100 -0.000101
225.456100 -0.000906
225.662100 0.000331
225.868100 0.000788
226.074200 0.000740
226.280200 -0.000136
226.486300 0.000881
226.692400 0.000240
226.898500 -0.000467
227.104600 -0.000154
227.310700 -0.000329
227.516900 -0.000597
227.723000 -0.000185
227.929200 -0.000853
228.135400 -0.000561
228.341600 -0.000284
228.547800 -0.000551
228.754100 -0.000417
228.960300 0.000536
229.166600 0.000413
229.372900 -0.000541
229.579100 -0.000129
229.785500 -0.000379
229.991800 0.000395
230.198100 0.000723
230.404500 0.000155
230.610800 -0.000361
230.817200 0.001151
231.023600 0.000082
231.230000 -0.000839
231.436400 -0.000821
231.642900 -0.000431
231.849300 0.000156
232.055800 -0.000797
232.262300 -0.001202
232.468800 0.000029
232.675300 -0.000720
232.881800 -0.000552
233.088400 0.000331
233.294900 0.000392
233.501500 -0.000255
233.708100 -0.000793
233.914700 -0.000288
234.121300 0.000810
234.327900 -0.000041
234.534600 0.000498
234.741300 -0.000344
234.947900 -0.000249
235.154600 -0.001921
235.361300 -0.000804
235.568000 0.000341
235.774800 0.000385
235.981500 -0.000301
236.188300 0.000722
236.395100 -0.000133
236.601800 -0.000228
236.808700 -0.000161
237.015500 -0.000323
237.222300 -0.000755
237.429200 -0.001236
237.636000 -0.000512
237.842900 -0.000203
238.049800 -0.000378
238.256700 -0.000097
238.463600 -0.000164
238.670600 -0.000223
238.877500 -0.000431
239.084500 0.000244
239.291500 -0.001120
239.498500 -0.000217
239.705500 0.000708
239.912500 0.000641
240.119500 0.000219
240.326600 -0.000034
240.533700 0.001783
240.740700 -0.000389
240.947800 -0.000344
241.154900 -0.000618
241.362100 -0.001078
241.569200 -0.000301
241.776400 0.000522
241.983500 -0.000684
242.190700 -0.000371
242.397900 0.000353
242.605100 0.000318
242.812400 0.000029
243.019600 -0.000571
243.226900 -0.000139
243.434100 -0.000312
243.641400 -0.000755
243.848700 0.000153
244.056000 0.000409
244.263400 0.000409
244.470700 -0.000639
244.678100 -0.000800
244.885400 -0.000966
245.092800 0.001236
245.300200 0.000012
245.507600 -0.000484
245.715100 -0.001194
245.922500 -0.000576
246.130000 0.000273
246.337500 -0.000878
246.544900 0.000779
246.752400 -0.001426
246.960000 -0.001096
247.167500 -0.001676
247.375000 0.000507
247.582600 -0.000258
247.790200 0.000247
247.997800 -0.000146
248.205400 -0.001324
248.413000 -0.000098
248.620600 -0.000498
248.828300 -0.001278
249.035900 -0.000756
249.243600 -0.000579
249.451300 -0.001535
249.659000 -0.001051
249.866700 -0.001395
250.074500 -0.001289
250.282200 -0.001300
250.490000 -0.000121
250.697800 -0.000568
250.905600 0.000649
251.113400 -0.000175
251.321200 0.000307
251.529000 -0.000101
251.736900 -0.000139
251.944700 -0.000811
252.152600 -0.001314
252.360500 -0.000969
252.568400 0.001102
252.776300 0.000483
252.984300 -0.001064
253.192200 -0.000846
253.400200 -0.000227
253.608200 -0.000137
253.816200 -0.000811
254.024200 0.000514
254.232200 0.001422
254.440200 0.000620
254.648300 0.000010
254.856400 -0.000023
255.064400 -0.000434
255.272500 -0.001012
255.480600 -0.000013
255.688800 0.000686
255.896900 -0.000164
256.105100 -0.001237
256.313200 -0.001121
256.521400 -0.000607
256.729600 0.000072
256.937800 -0.001026
257.146000 0.000441
257.354300 0.000613
257.562500 0.000040
257.770800 0.000880
257.979100 -0.000638
258.187400 -0.000308
258.395700 0.000303
258.604000 -0.000653
258.812400 -0.000309
259.020700 -0.000878
259.229100 -0.001479
259.437500 -0.000474
259.645900 -0.000537
259.854300 -0.000178
260.062700 -0.000567
260.271100 -0.000156
260.479600 -0.000625
260.688100 0.000002
260.896500 -0.001761
261.105000 0.001074
261.313500 0.000089
261.522100 -0.000868
261.730600 0.000201
261.939200 -0.000193
262.147700 0.000628
262.356300 0.000106
262.564900 0.000705
262.773500 -0.000532
262.982200 -0.001170
263.190800 0.000662
263.399500 -0.000702
263.608100 -0.001079
263.816800 -0.000765
264.025500 -0.000002
264.234200 0.000427
264.442900 0.000781
264.651700 -0.000878
264.860400 -0.000164
265.069200 -0.000288
265.278000 -0.001258
265.486800 -0.000847
265.695600 -0.000105
265.904400 0.000416
266.113300 0.000004
266.322100 -0.000467
266.531000 0.000367
266.739900 0.000149
266.948800 -0.000786
267.157700 -0.000365
267.366600 0.000047
267.575500 0.000328
267.784500 0.000223
267.993500 -0.000326
268.202400 -0.000266
268.411400 -0.000600
268.620500 0.000303
268.829500 0.000403
269.038500 0.000213
269.247600 -0.000459
269.456600 0.000244
269.665700 0.000358
269.874800 -0.000448
270.083900 -0.001208
270.293100 0.000620
270.502200 -0.000857
270.711400 -0.000301
270.920500 0.000254
271.129700 -0.001388
271.338900 -0.001466
271.548100 -0.000371
271.757300 -0.000360
271.966600 -0.000354
272.175800 -0.000987
272.385100 -0.001039
272.594400 -0.000146
272.803700 -0.001240
273.013000 0.000462
273.222300 -0.000129
273.431600 -0.000491
273.641000 -0.000910
273.850400 0.000413
274.059700 -0.000481
274.269100 0.000463
274.478500 -0.000238
274.688000 -0.001483
274.897400 -0.000635
275.106900 0.000989
275.316300 -0.000952
275.525800 -0.001334
275.735300 0.000556
275.944800 0.000012
276.154300 -0.000592
276.363900 -0.000649
276.573400 -0.000395
276.783000 -0.000297
276.992600 0.000515
277.202200 -0.001079
277.411800 -0.000245
277.621400 0.000367
277.831000 -0.001215
278.040700 -0.000111
278.250300 -0.000618
278.460000 -0.000059
278.669700 -0.001131
278.879400 -0.000446
279.089100 -0.000413
279.298900 0.000001
279.508600 -0.000399
279.718400 -0.001324
279.928100 0.000371
280.137900 -0.001064
280.347700 0.000099
280.557600 -0.000448
280.767400 -0.001029
280.977200 -0.000273
281.187100 0.001036
281.397000 -0.000279
281.606900 0.000452
281.816800 -0.000462
282.026700 -0.000438
282.236600 0.000026
282.446600 -0.001071
282.656500 0.000976
282.866500 -0.000055
283.076500 0.000430
283.286500 -0.000157
283.496500 -0.000629
283.706500 -0.000512
283.916600 -0.000263
284.126600 0.000529
284.336700 -0.000460
284.546800 0.000198
284.756900 -0.000462
284.967000 -0.000604
285.177100 -0.000505
285.387300 0.001074
285.597400 -0.000350
285.807600 -0.000295
286.017800 -0.000786
286.228000 0.000184
286.438200 -0.000048
286.648400 -0.000196
286.858700 -0.001074
287.068900 0.000318
287.279200 0.000226
287.489500 0.001239
287.699800 -0.000815
287.910100 -0.000396
288.120400 -0.001093
288.330800 0.000250
288.541100 -0.002429
288.751500 -0.000023
288.961900 0.000757
289.172300 0.000774
289.382700 0.000283
289.593100 -0.000368
289.803500 0.001098
290.014000 -0.000420
290.224500 0.000276
290.434900 0.001158
290.645400 0.000476
290.855900 0.000227
291.066500 -0.000857
291.277000 0.000100
291.487500 0.000237
291.698100 0.000385
291.908700 0.000542
292.119300 -0.001229
292.329900 -0.000786
292.540500 -0.000267
292.751100 -0.000657
292.961800 0.001587
293.172400 -0.000920
293.383100 -0.000258
293.593800 0.000159
293.804500 0.000391
294.015200 0.000241
294.226000 0.000458
294.436700 -0.000481
294.647500 -0.000656
294.858200 -0.000659
295.069000 -0.000010
295.279800 0.000209
295.490600 0.000262
295.701500 -0.000484
295.912300 -0.001321
296.123200 -0.000833
296.334000 0.000124
296.544900 -0.001145
296.755800 -0.000262
296.966700 -0.000371
297.177700 -0.000924
297.388600 -0.000804
297.599500 0.000568
297.810500 -0.001019
298.021500 -0.001233
298.232500 -0.000565
298.443500 0.000044
298.654500 -0.000758
298.865600 -0.000364
299.076600 0.000377
299.287700 0.000433
299.498800 -0.001504
299.709900 -0.000346
299.921000 -0.000934
300.132100 -0.001268
300.343200 -0.001336
300.554400 0.000243
300.765500 -0.000431
300.976700 0.000279
301.187900 -0.000455
301.399100 -0.000228
301.610300 -0.000220
301.821500 -0.001344
302.032800 0.000115
302.244100 -0.000667
302.455300 -0.000512
302.666600 -0.000678
302.877900 -0.000874
303.089200 0.000322
303.300600 -0.001156
303.511900 -0.001075
303.723300 0.000631
303.934600 -0.000597
304.146000 0.001991
304.357400 -0.000214
304.568800 0.000234
304.780300 -0.001134
304.991700 0.000124
305.203100 0.000187
305.414600 -0.000593
305.626100 -0.000013
305.837600 -0.001110
306.049100 0.000121
306.260600 -0.000498
306.472200 0.000564
306.683700 -0.000664
306.895300 0.000124
307.106900 -0.000825
307.318400 -0.000175
307.530100 -0.001223
307.741700 -0.000456
307.953300 -0.002176
308.165000 0.000185
308.376600 -0.001566
308.588300 -0.001331
308.800000 -0.000652
309.011700 -0.001760
309.223400 0.000001
309.435100 -0.000246
309.646900 0.000188
309.858600 -0.000339
310.070400 0.000019
310.282200 0.001176
310.494000 -0.001254
310.705800 -0.001613
310.917600 0.000110
311.129500 -0.000368
311.341300 -0.000466
311.553200 -0.000572
311.765100 -0.000097
311.977000 -0.000558
312.188900 0.000102
312.400800 0.000750
312.612700 0.000138
312.824700 -0.001184
313.036600 -0.000597
313.248600 -0.001999
313.460600 0.000430
313.672600 -0.000807
313.884600 -0.000017
314.096700 -0.000516
314.308700 -0.002442
314.520800 0.000093
314.732800 -0.001500
314.944900 -0.000998
315.157000 -0.000961
315.369200 0.000043
315.581300 0.000387
315.793400 0.000360
316.005600 -0.000150
316.217700 -0.000276
316.429900 -0.001838
316.642100 -0.000431
316.854300 0.000371
317.066600 -0.001950
317.278800 -0.001008
317.491100 -0.000825
317.703300 -0.001155
317.915600 -0.001288
318.127900 -0.001545
318.340200 -0.001215
318.552500 -0.001089
318.764900 -0.000772
318.977200 -0.001451
319.189600 0.000104
319.401900 -0.000564
319.614300 -0.000365
319.826700 -0.000100
320.039200 -0.001356
320.251600 -0.000821
320.464000 -0.001310
320.676500 -0.000336
320.889000 0.000553
321.101400 -0.000502
321.313900 -0.001606
321.526500 -0.001591
321.739000 -0.001000
321.951500 -0.001458
322.164100 -0.000315
322.376600 -0.001317
322.589200 -0.000955
322.801800 -0.000368
323.014400 -0.000741
323.227000 -0.000413
323.439700 -0.000972
323.652300 -0.001700
323.865000 -0.001307
324.077700 -0.001926
324.290400 -0.001086
324.503100 0.000036
324.715800 -0.001416
324.928500 -0.000301
325.141200 -0.000803
325.354000 -0.001949
325.566800 -0.001412
325.779600 -0.001497
325.992400 -0.000501
326.205200 -0.002333
326.418000 -0.001819
326.630800 -0.001732
326.843700 -0.002480
327.056600 -0.000986
327.269400 -0.001183
327.482300 -0.001145
327.695200 -0.000820
327.908200 -0.000382
328.121100 -0.001282
328.334000 -0.001260
328.547000 -0.003185
328.760000 -0.000740
328.973000 -0.001780
329.186000 -0.000515
329.399000 -0.001595
329.612000 -0.003528
329.825100 -0.001001
330.038100 -0.001812
330.251200 -0.002170
330.464300 -0.002034
330.677400 -0.002891
330.890500 -0.003711
331.103600 -0.001792
331.316700 -0.002246
331.529900 -0.002836
331.743100 -0.001345
331.956200 -0.002115
332.169400 -0.001299
332.382600 -0.002058
332.595900 -0.002667
332.809100 -0.002097
333.022300 -0.001858
333.235600 -0.003187
333.448900 -0.002150
333.662200 -0.002576
333.875500 -0.001929
334.088800 -0.001750
334.302100 -0.003398
334.515400 -0.002635
334.728800 -0.001035
334.942200 -0.001611
335.155500 -0.001595
335.368900 -0.003855
335.582300 -0.002207
335.795800 -0.002276
336.009200 -0.003321
336.222700 -0.002420
336.436100 -0.003117
336.649600 -0.003690
336.863100 -0.001929
337.076600 -0.004133
337.290100 -0.003325
337.503600 -0.001035
337.717200 -0.001953
337.930700 -0.003402
338.144300 -0.003064
338.357900 -0.001865
338.571500 -0.002516
338.785100 -0.002566
338.998700 -0.002340
339.212400 -0.004411
339.426000 -0.002326
339.639700 -0.002917
339.853300 -0.002846
340.067000 -0.002938
340.280700 -0.002909
340.494500 -0.003986
340.708200 -0.002941
340.921900 -0.003257
341.135700 -0.002037
341.349500 -0.003423
341.563300 -0.003145
341.777100 -0.003947
341.990900 -0.003486
342.204700 -0.004105
342.418500 -0.004403
342.632400 -0.004481
342.846300 -0.003535
343.060100 -0.002371
343.274000 -0.003406
343.487900 -0.004622
343.701900 -0.002940
343.915800 -0.003212
344.129700 -0.004633
344.343700 -0.002938
344.557700 -0.005054
344.771700 -0.003750
344.985700 -0.005110
345.199700 -0.003236
345.413700 -0.004281
345.627700 -0.003040
345.841800 -0.003757
346.055900 -0.004508
346.269900 -0.004470
346.484000 -0.004752
346.698100 -0.002797
346.912300 -0.002351
347.126400 -0.004227
347.340600 -0.005008
347.554700 -0.004189
347.768900 -0.004897
347.983100 -0.006120
348.197300 -0.004034
348.411500 -0.002845
348.625700 -0.004185
348.840000 -0.004569
349.054200 -0.005157
349.268500 -0.005510
349.482800 -0.003802
349.697100 -0.004058
349.911400 -0.003545
350.125700 -0.003946
350.340000 -0.004390
350.554400 -0.005258
350.768700 -0.003784
350.983100 -0.004118
351.197500 -0.003851
351.411900 -0.005068
351.626300 -0.005573
351.840700 -0.004534
352.055200 -0.004688
352.269600 -0.005387
352.484100 -0.004780
352.698600 -0.005616
352.913100 -0.003819
353.127600 -0.005606
353.342100 -0.005099
353.556600 -0.006059
353.771200 -0.006017
353.985800 -0.003556
354.200300 -0.004146
354.414900 -0.004720
354.629500 -0.004832
354.844100 -0.005064
355.058800 -0.004997
355.273400 -0.004086
355.488100 -0.004829
355.702700 -0.004677
355.917400 -0.003665
356.132100 -0.005735
356.346800 -0.005380
356.561500 -0.005465
356.776300 -0.004853
356.991000 -0.006030
357.205800 -0.005174
357.420600 -0.004393
357.635300 -0.005170
357.850100 -0.005162
358.065000 -0.005082
358.279800 -0.004307
358.494600 -0.004822
358.709500 -0.004969
358.924300 -0.004892
359.139200 -0.005099
359.354100 -0.004280
359.569000 -0.004561
359.783900 -0.005476
359.998900 -0.002624
360.213800 -0.005208
360.428800 -0.006474
360.643800 -0.004357
360.858700 -0.003034
361.073700 -0.005310
361.288800 -0.005124
361.503800 -0.005879
361.718800 -0.003454
361.933900 -0.004505
362.148900 -0.005169
362.364000 -0.004308
362.579100 -0.005543
362.794200 -0.003337
363.009300 -0.006133
363.224500 -0.004302
363.439600 -0.004356
363.654800 -0.005415
363.869900 -0.004389
364.085100 -0.004462
364.300300 -0.003475
364.515500 -0.005415
364.730800 -0.004403
364.946000 -0.005119
365.161200 -0.004079
365.376500 -0.006341
365.591800 -0.003762
365.807100 -0.004860
366.022400 -0.004107
366.237700 -0.005462
366.453000 -0.005915
366.668400 -0.004829
366.883700 -0.003573
367.099100 -0.004564
367.314500 -0.004234
367.529900 -0.005303
367.745300 -0.004405
367.960700 -0.004723
368.176100 -0.003794
368.391600 -0.005532
368.607000 -0.004656
368.822500 -0.004730
369.038000 -0.006471
369.253500 -0.004800
369.469000 -0.004630
369.684500 -0.006125
369.900100 -0.005492
370.115600 -0.003168
370.331200 -0.003418
370.546800 -0.004293
370.762400 -0.004617
370.978000 -0.005585
371.193600 -0.003762
371.409200 -0.004522
371.624900 -0.005742
371.840500 -0.006333
372.056200 -0.005021
372.271900 -0.003724
372.487600 -0.005836
372.703300 -0.004371
372.919000 -0.003829
373.134800 -0.004256
373.350500 -0.003819
373.566300 -0.004444
373.782000 -0.003583
373.997800 -0.005236
374.213600 -0.003467
374.429400 -0.005151
374.645300 -0.005435
374.861100 -0.004002
375.077000 -0.004557
375.292800 -0.003301
375.508700 -0.004134
375.724600 -0.004431
375.940500 -0.004493
376.156400 -0.005021
376.372400 -0.005115
376.588300 -0.004067
376.804300 -0.004866
377.020300 -0.005565
377.236200 -0.005136
377.452200 -0.005066
377.668200 -0.004345
377.884300 -0.005094
378.100300 -0.003786
378.316400 -0.005572
378.532400 -0.003908
378.748500 -0.005708
378.964600 -0.005643
379.180700 -0.004509
379.396800 -0.004692
379.612900 -0.004261
379.829100 -0.004601
380.045200 -0.004517
380.261400 -0.005283
380.477600 -0.006395
380.693800 -0.002770
380.910000 -0.005807
381.126200 -0.002140
381.342400 -0.005009
381.558700 -0.002586
381.774900 -0.002562
381.991200 -0.003855
382.207500 -0.004053
382.423800 -0.002783
382.640100 -0.004062
382.856400 -0.004221
383.072800 -0.003243
383.289100 -0.004133
383.505500 -0.003588
383.721900 -0.004721
383.938200 -0.002734
384.154600 -0.003047
384.371100 -0.003620
384.587500 -0.004017
384.803900 -0.004897
385.020400 -0.003043
385.236800 -0.004014
385.453300 -0.005100
385.669800 -0.002620
385.886300 -0.003325
386.102800 -0.003461
386.319400 -0.003011
386.535900 -0.003609
386.752500 -0.004464
386.969000 -0.003314
387.185600 -0.000310
387.402200 -0.003644
387.618800 -0.003151
387.835500 -0.002529
388.052100 -0.003904
388.268700 -0.002920
388.485400 -0.002322
388.702100 -0.005121
388.918800 -0.002187
389.135500 -0.004035
389.352200 -0.003239
389.568900 -0.002508
389.785600 -0.003222
390.002400 -0.002473
390.219200 -0.001144
390.435900 -0.003717
390.652700 -0.002532
390.869500 -0.003917
391.086300 -0.002461
391.303200 -0.002862
391.520000 -0.003186
391.736900 -0.002881
391.953700 -0.001857
392.170600 -0.003169
392.387500 -0.002669
392.604400 -0.004103
392.821300 -0.001333
393.038300 -0.002081
393.255200 -0.003213
393.472200 -0.001801
393.689100 -0.002127
393.906100 -0.001410
394.123100 -0.001881
394.340100 -0.002387
394.557200 -0.001388
394.774200 -0.001080
394.991200 -0.000397
395.208300 -0.002596
395.425400 -0.001261
395.642500 -0.002538
395.859600 -0.001104
396.076700 -0.001470
396.293800 -0.002061
396.510900 -0.002557
396.728100 -0.002485
396.945300 -0.003984
397.162400 -0.001891
397.379600 -0.002843
397.596800 -0.002264
397.814000 -0.001691
398.031300 -0.004703
398.248500 -0.001225
398.465800 -0.001890
398.683000 -0.001063
398.900300 -0.002924
399.117600 -0.000828
399.334900 -0.002041
399.552200 -0.001715
399.769600 0.000209
399.986900 -0.001381
