# Wavelength	Intensity diff (sample - DMSO)
197.780200 0.000211
197.984200 -0.000573
198.188200 -0.001062
198.392200 -0.000210
198.596300 -0.000430
198.800300 -0.000113
199.004400 -0.000432
199.208500 -0.000415
199.412600 -0.000151
199.616800 -0.000591
199.820900 0.000513
200.025100 -0.000948
200.229200 0.000873
200.433400 -0.001087
200.637600 0.000102
200.841800 -0.000844
201.046100 -0.000412
201.250300 -0.000689
201.454600 -0.000548
201.658900 -0.001227
201.863100 -0.000485
202.067400 -0.000375
202.271800 -0.001153
202.476100 0.000249
202.680500 -0.000352
202.884800 -0.001030
203.089200 -0.001115
203.293600 -0.000257
203.498000 -0.000267
203.702400 0.000391
203.906900 -0.000341
204.111300 0.000549
204.315800 0.000524
204.520300 -0.000540
204.724800 0.000278
204.929300 0.000015
205.133800 -0.000886
205.338400 0.000046
205.543000 -0.000946
205.747500 -0.000168
205.952100 0.000074
206.156700 -0.000440
206.361400 0.001102
206.566000 0.000292
206.770600 -0.000042
206.975300 0.000236
207.180000 -0.000194
207.384700 -0.000299
207.589400 0.000566
207.794100 -0.000390
207.998900 -0.000465
208.203600 -0.001683
208.408400 -0.000136
208.613200 -0.000376
208.818000 0.000486
209.022800 0.000117
209.227600 -0.000559
209.432500 -0.000707
209.637300 -0.000999
209.842200 0.000299
210.047100 0.000324
210.252000 0.000003
210.456900 -0.000520
210.661800 -0.000703
210.866800 -0.000074
211.071800 -0.000790
211.276700 -0.000391
211.481700 -0.000260
211.686700 0.000580
211.891800 -0.000299
212.096800 -0.001272
212.301800 -0.001097
212.506900 -0.000900
212.712000 -0.000548
212.917100 -0.001371
213.122200 -0.000021
213.327300 -0.001132
213.532500 0.000278
213.737600 -0.000161
213.942800 0.000510
214.148000 0.000659
214.353200 0.000376
214.558400 -0.000654
214.763600 -0.001677
214.968900 -0.000320
215.174100 -0.001269
215.379400 0.000953
215.584700 -0.000664
215.790000 -0.000963
215.995300 -0.000608
216.200700 0.000193
216.406000 -0.001484
216.611400 -0.000278
216.816800 -0.000974
217.022200 0.000774
217.227600 -0.000780
217.433000 0.000187
217.638400 -0.001351
217.843900 -0.000738
218.049400 0.000833
218.254800 -0.001887
218.460300 -0.002156
218.665900 0.000140
218.871400 -0.001094
219.076900 -0.001052
219.282500 -0.000735
219.488100 -0.001738
219.693600 -0.000682
219.899200 -0.001047
220.104900 -0.000570
220.310500 0.000485
220.516100 0.000925
220.721800 -0.000305
220.927500 -0.000985
221.133200 -0.000260
221.338900 -0.000161
221.544600 -0.000179
221.750300 -0.001340
221.956100 -0.000495
222.161800 -0.000222
222.367600 -0.000499
222.573400 0.000084
222.779200 0.000770
222.985000 0.001354
223.190900 -0.000292
223.396700 0.000000
223.602600 -0.000123
223.808500 -0.000281
224.014400 -0.000359
224.220300 -0.000978
224.426200 -0.000464
224.632200 -0.000538
224.838100 0.000232
225.044100 0.000208
225.250100 0.000155
225.456100 0.000383
225.662100 0.000686
225.868100 0.000221
226.074200 0.000292
226.280200 -0.000330
226.486300 -0.000270
226.692400 0.001044
226.898500 -0.001098
227.104600 -0.000454
227.310700 -0.000460
227.516900 -0.001213
227.723000 0.000317
227.929200 -0.001850
228.135400 -0.000558
228.341600 -0.001492
228.547800 -0.001019
228.754100 -0.000246
228.960300 0.000383
229.166600 0.000739
229.372900 -0.000981
229.579100 -0.000127
229.785500 0.000074
229.991800 0.000334
230.198100 0.000500
230.404500 -0.000152
230.610800 0.000028
230.817200 0.001041
231.023600 -0.000563
231.230000 -0.000021
231.436400 -0.001100
231.642900 -0.000379
231.849300 0.000243
232.055800 -0.000070
232.262300 -0.001263
232.468800 0.000004
232.675300 0.000197
232.881800 0.000337
233.088400 0.000348
233.294900 -0.000316
233.501500 -0.000436
233.708100 0.000137
233.914700 -0.000504
234.121300 0.000418
234.327900 -0.000651
234.534600 -0.000787
234.741300 -0.001467
234.947900 -0.000190
235.154600 -0.001651
235.361300 -0.000978
235.568000 -0.000584
235.774800 -0.000457
235.981500 0.000574
236.188300 0.000907
236.395100 -0.000025
236.601800 0.000210
236.808700 0.000433
237.015500 -0.000644
237.222300 -0.000141
237.429200 -0.001613
237.636000 -0.000235
237.842900 -0.000025
238.049800 0.000103
238.256700 -0.000735
238.463600 0.000366
238.670600 -0.001628
238.877500 -0.001265
239.084500 0.000155
239.291500 -0.000977
239.498500 0.000503
239.705500 0.000682
239.912500 -0.000257
240.119500 0.000348
240.326600 0.000446
240.533700 0.001715
240.740700 0.000296
240.947800 -0.000553
241.154900 -0.001192
241.362100 -0.000231
241.569200 -0.000334
241.776400 -0.001093
241.983500 -0.001041
242.190700 -0.000790
242.397900 0.000749
242.605100 0.000151
242.812400 -0.001108
243.019600 -0.001420
243.226900 0.000257
243.434100 -0.000049
243.641400 -0.000492
243.848700 -0.000288
244.056000 0.000390
244.263400 0.000383
244.470700 -0.001186
244.678100 -0.000298
244.885400 -0.000717
245.092800 -0.000041
245.300200 -0.000520
245.507600 -0.001663
245.715100 -0.000524
245.922500 -0.000327
246.130000 -0.000006
246.337500 -0.000876
246.544900 -0.000295
246.752400 -0.001487
246.960000 -0.000517
247.167500 -0.001217
247.375000 0.000354
247.582600 0.000321
247.790200 0.000454
247.997800 -0.000298
248.205400 -0.001815
248.413000 0.000179
248.620600 -0.000038
248.828300 -0.000502
249.035900 -0.000697
249.243600 -0.000267
249.451300 -0.001793
249.659000 -0.001301
249.866700 -0.001068
250.074500 -0.000604
250.282200 -0.000088
250.490000 -0.000914
250.697800 -0.000566
250.905600 0.000356
251.113400 -0.000313
251.321200 -0.000070
251.529000 0.000134
251.736900 -0.001044
251.944700 -0.000837
252.152600 -0.001150
252.360500 0.000883
252.568400 0.000022
252.776300 0.000182
252.984300 -0.000443
253.192200 -0.000513
253.400200 -0.000400
253.608200 -0.000697
253.816200 -0.001976
254.024200 -0.000538
254.232200 0.000046
254.440200 0.001354
254.648300 -0.000078
254.856400 -0.001407
255.064400 -0.000756
255.272500 -0.000609
255.480600 -0.001143
255.688800 0.000295
255.896900 -0.000182
256.105100 -0.002071
256.313200 0.000106
256.521400 -0.000148
256.729600 0.000272
256.937800 -0.001621
257.146000 -0.000028
257.354300 0.000784
257.562500 -0.000759
257.770800 0.000608
257.979100 -0.001409
258.187400 -0.000432
258.395700 -0.000876
258.604000 -0.001811
258.812400 -0.000306
259.020700 -0.000735
259.229100 -0.000133
259.437500 0.000232
259.645900 -0.000661
259.854300 0.000092
260.062700 -0.001247
260.271100 -0.000696
260.479600 -0.000454
260.688100 0.000321
260.896500 -0.001090
261.105000 0.000211
261.313500 0.000169
261.522100 -0.001442
261.730600 -0.000226
261.939200 -0.000366
262.147700 -0.000544
262.356300 0.000108
262.564900 0.000201
262.773500 -0.001107
262.982200 -0.001506
263.190800 0.001284
263.399500 -0.000523
263.608100 -0.000563
263.816800 -0.000411
264.025500 -0.000843
264.234200 0.000317
264.442900 -0.000046
264.651700 -0.000355
264.860400 -0.001040
265.069200 -0.000475
265.278000 -0.001312
265.486800 -0.000802
265.695600 0.000537
265.904400 -0.000397
266.113300 -0.001077
266.322100 -0.000246
266.531000 -0.000602
266.739900 -0.000222
266.948800 -0.000847
267.157700 -0.000046
267.366600 -0.000851
267.575500 0.001125
267.784500 0.000486
267.993500 -0.001315
268.202400 -0.000875
268.411400 -0.000274
268.620500 -0.000581
268.829500 -0.000178
269.038500 0.000623
269.247600 -0.000590
269.456600 0.000401
269.665700 -0.000590
269.874800 -0.000080
270.083900 -0.001452
270.293100 0.000468
270.502200 -0.000144
270.711400 -0.000574
270.920500 -0.000235
271.129700 -0.001280
271.338900 -0.000352
271.548100 -0.000179
271.757300 -0.000442
271.966600 -0.001104
272.175800 -0.001448
272.385100 -0.001143
272.594400 -0.000488
272.803700 -0.000830
273.013000 -0.000064
273.222300 -0.001118
273.431600 -0.000826
273.641000 -0.001146
273.850400 0.000331
274.059700 -0.001006
274.269100 -0.000885
274.478500 -0.001523
274.688000 -0.001417
274.897400 -0.000612
275.106900 0.000471
275.316300 -0.000387
275.525800 -0.000812
275.735300 0.000158
275.944800 -0.000273
276.154300 -0.000724
276.363900 -0.000977
276.573400 -0.000709
276.783000 -0.000850
276.992600 -0.000812
277.202200 0.000119
277.411800 0.000672
277.621400 -0.000558
277.831000 -0.000973
278.040700 -0.000390
278.250300 -0.000144
278.460000 0.000098
278.669700 -0.001600
278.879400 0.000492
279.089100 0.000039
279.298900 -0.000496
279.508600 -0.001072
279.718400 -0.000780
279.928100 0.000591
280.137900 -0.001716
280.347700 -0.000010
280.557600 0.000053
280.767400 -0.000514
280.977200 0.000117
281.187100 0.000891
281.397000 -0.000917
281.606900 0.001151
281.816800 -0.000474
282.026700 -0.000246
282.236600 -0.000090
282.446600 -0.000710
282.656500 0.000359
282.866500 -0.000672
283.076500 -0.000144
283.286500 -0.000780
283.496500 -0.000844
283.706500 -0.000832
283.916600 -0.000176
284.126600 0.000742
284.336700 0.000127
284.546800 -0.000764
284.756900 -0.000664
284.967000 -0.000306
285.177100 -0.000720
285.387300 0.000549
285.597400 -0.000340
285.807600 -0.000095
286.017800 -0.001501
286.228000 0.000418
286.438200 -0.000482
286.648400 -0.001044
286.858700 -0.001086
287.068900 -0.000495
287.279200 -0.000292
287.489500 -0.000566
287.699800 -0.000834
287.910100 -0.000028
288.120400 -0.000430
288.330800 0.000203
288.541100 -0.002040
288.751500 -0.000189
288.961900 0.000260
289.172300 0.001023
289.382700 -0.000495
289.593100 0.000486
289.803500 0.001410
290.014000 -0.001185
290.224500 -0.000791
290.434900 0.001434
290.645400 0.000240
290.855900 0.000257
291.066500 -0.000812
291.277000 0.000025
291.487500 -0.000386
291.698100 0.000394
291.908700 0.000208
292.119300 -0.001114
292.329900 -0.000186
292.540500 -0.000532
292.751100 0.000907
292.961800 0.001478
293.172400 -0.001227
293.383100 0.000229
293.593800 -0.000035
293.804500 0.000204
294.015200 -0.000629
294.226000 0.000418
294.436700 0.000478
294.647500 -0.000612
294.858200 0.000018
295.069000 -0.000626
295.279800 0.000556
295.490600 -0.000348
295.701500 -0.000285
295.912300 -0.000806
296.123200 -0.000380
296.334000 -0.000506
296.544900 -0.001409
296.755800 -0.000977
296.966700 -0.000291
297.177700 -0.000852
297.388600 -0.001033
297.599500 0.000289
297.810500 -0.000278
298.021500 -0.000211
298.232500 -0.000218
298.443500 -0.000285
298.654500 -0.001114
298.865600 -0.001480
299.076600 -0.000021
299.287700 0.000675
299.498800 -0.000383
299.709900 -0.000801
299.921000 -0.001354
300.132100 -0.001033
300.343200 -0.001101
300.554400 -0.000627
300.765500 0.000289
300.976700 0.000154
301.187900 -0.000235
301.399100 -0.000057
301.610300 -0.000725
301.821500 -0.001433
302.032800 -0.000727
302.244100 -0.001516
302.455300 -0.001185
302.666600 -0.001435
302.877900 -0.000794
303.089200 0.000345
303.300600 -0.000668
303.511900 -0.000868
303.723300 -0.000555
303.934600 -0.001284
304.146000 -0.000109
304.357400 0.000464
304.568800 -0.000918
304.780300 -0.000716
304.991700 0.000379
305.203100 0.000351
305.414600 -0.000338
305.626100 0.000820
305.837600 -0.000847
306.049100 -0.000397
306.260600 -0.001199
306.472200 0.000510
306.683700 0.000963
306.895300 0.000760
307.106900 -0.001019
307.318400 -0.000777
307.530100 0.000025
307.741700 -0.000130
307.953300 -0.000668
308.165000 0.000595
308.376600 -0.000861
308.588300 -0.001195
308.800000 0.000554
309.011700 -0.001736
309.223400 0.000271
309.435100 -0.000053
309.646900 -0.000175
309.858600 -0.000231
310.070400 -0.000463
310.282200 0.000848
310.494000 -0.001279
310.705800 -0.000703
310.917600 0.000352
311.129500 -0.000217
311.341300 -0.001258
311.553200 -0.000456
311.765100 -0.000362
311.977000 -0.000872
312.188900 -0.000704
312.400800 0.000161
312.612700 0.000057
312.824700 -0.001871
313.036600 0.000707
313.248600 -0.001554
313.460600 0.000679
313.672600 -0.000706
313.884600 -0.000190
314.096700 -0.000169
314.308700 -0.001814
314.520800 0.000313
314.732800 -0.000773
314.944900 -0.000559
315.157000 0.000026
315.369200 0.000383
315.581300 -0.000123
315.793400 0.001003
316.005600 0.000163
316.217700 -0.000801
316.429900 -0.002222
316.642100 -0.001139
316.854300 0.000008
317.066600 -0.002116
317.278800 -0.001407
317.491100 -0.001103
317.703300 -0.001322
317.915600 -0.000618
318.127900 -0.001782
318.340200 0.000257
318.552500 -0.000193
318.764900 0.000468
318.977200 -0.000386
319.189600 -0.000253
319.401900 -0.000948
319.614300 0.000335
319.826700 -0.000695
320.039200 -0.001494
320.251600 -0.000200
320.464000 -0.000238
320.676500 -0.000593
320.889000 0.001097
321.101400 -0.000970
321.313900 -0.000590
321.526500 -0.001518
321.739000 -0.001005
321.951500 -0.000688
322.164100 0.000862
322.376600 -0.001350
322.589200 -0.000959
322.801800 -0.000006
323.014400 -0.000414
323.227000 0.000054
323.439700 -0.000209
323.652300 -0.000699
323.865000 -0.000650
324.077700 0.000131
324.290400 0.000219
324.503100 -0.000045
324.715800 0.000585
324.928500 0.000040
325.141200 0.000318
325.354000 -0.001961
325.566800 -0.000425
325.779600 -0.000756
325.992400 0.001098
326.205200 -0.001022
326.418000 -0.000797
326.630800 -0.000689
326.843700 -0.001823
327.056600 0.000522
327.269400 0.000367
327.482300 -0.000657
327.695200 0.000153
327.908200 -0.000421
328.121100 -0.000013
328.334000 -0.000709
328.547000 -0.002246
328.760000 -0.000055
328.973000 -0.001545
329.186000 -0.000139
329.399000 -0.000285
329.612000 -0.001056
329.825100 -0.000189
330.038100 0.000498
330.251200 -0.000536
330.464300 -0.001483
330.677400 -0.001214
330.890500 -0.002646
331.103600 -0.000579
331.316700 -0.001624
331.529900 -0.000674
331.743100 0.000085
331.956200 -0.000466
332.169400 -0.000164
332.382600 -0.000072
332.595900 -0.001532
332.809100 -0.000694
333.022300 -0.000048
333.235600 0.000248
333.448900 -0.000037
333.662200 -0.000576
333.875500 -0.000442
334.088800 0.000222
334.302100 -0.001151
334.515400 -0.001170
334.728800 -0.000427
334.942200 0.000354
335.155500 0.001060
335.368900 -0.000568
335.582300 0.000547
335.795800 -0.001373
336.009200 -0.001095
336.222700 -0.000856
336.436100 0.000193
336.649600 -0.002048
336.863100 0.000001
337.076600 -0.001288
337.290100 -0.000740
337.503600 -0.000047
337.717200 -0.000283
337.930700 -0.000529
338.144300 -0.001521
338.357900 0.001092
338.571500 0.000780
338.785100 0.000511
338.998700 0.000357
339.212400 -0.000969
339.426000 -0.000480
339.639700 0.000378
339.853300 -0.000268
340.067000 -0.000726
340.280700 0.000864
340.494500 -0.000979
340.708200 0.000923
340.921900 -0.000630
341.135700 0.001469
341.349500 0.000625
341.563300 0.000572
341.777100 -0.001390
341.990900 -0.001176
342.204700 0.000216
342.418500 -0.001037
342.632400 -0.001144
342.846300 -0.000367
343.060100 0.001135
343.274000 -0.000160
343.487900 -0.001088
343.701900 0.000488
343.915800 0.000041
344.129700 -0.001147
344.343700 0.000280
344.557700 -0.000647
344.771700 0.000621
344.985700 -0.001795
345.199700 -0.000208
345.413700 -0.002196
345.627700 0.000066
345.841800 -0.001045
346.055900 -0.000475
346.269900 -0.000669
346.484000 -0.001675
346.698100 0.000857
346.912300 -0.000364
347.126400 -0.001101
347.340600 -0.000644
347.554700 0.000471
347.768900 0.000214
347.983100 -0.001122
348.197300 -0.000416
348.411500 0.000893
348.625700 0.000425
348.840000 -0.000043
349.054200 -0.001003
349.268500 -0.001632
349.482800 -0.000007
349.697100 0.000377
349.911400 0.000180
350.125700 -0.000341
350.340000 -0.000588
350.554400 -0.000746
350.768700 -0.000827
350.983100 0.001118
351.197500 0.001034
351.411900 -0.001738
351.626300 -0.000801
351.840700 -0.000852
352.055200 0.000493
352.269600 -0.000622
352.484100 -0.000774
352.698600 -0.001456
352.913100 0.001354
353.127600 -0.001262
353.342100 -0.000095
353.556600 -0.001195
353.771200 0.000064
353.985800 -0.000254
354.200300 0.000035
354.414900 -0.000053
354.629500 0.000918
354.844100 -0.000601
355.058800 -0.000865
355.273400 0.000131
355.488100 -0.000331
355.702700 0.000637
355.917400 0.000685
356.132100 -0.001483
356.346800 -0.000291
356.561500 -0.000622
356.776300 -0.000362
356.991000 -0.000871
357.205800 -0.001125
357.420600 0.000528
357.635300 -0.000567
357.850100 -0.000291
358.065000 0.000247
358.279800 0.000634
358.494600 -0.000317
358.709500 -0.000323
358.924300 0.000408
359.139200 -0.000186
359.354100 0.000373
359.569000 0.000408
359.783900 -0.000028
359.998900 0.000834
360.213800 -0.000006
360.428800 -0.001567
360.643800 0.000795
360.858700 0.001612
361.073700 -0.001136
361.288800 -0.000992
361.503800 -0.000158
361.718800 0.000933
361.933900 -0.000183
362.148900 -0.000186
362.364000 0.000585
362.579100 -0.001586
362.794200 0.000486
363.009300 -0.000193
363.224500 -0.000218
363.439600 -0.000329
363.654800 -0.001226
363.869900 0.000525
364.085100 -0.000041
364.300300 0.000320
364.515500 -0.000811
364.730800 -0.000840
364.946000 -0.000326
365.161200 -0.000270
365.376500 -0.000956
365.591800 -0.000298
365.807100 0.000982
366.022400 0.000180
366.237700 -0.000344
366.453000 -0.001712
366.668400 -0.000471
366.883700 0.000159
367.099100 0.000624
367.314500 0.000181
367.529900 -0.000340
367.745300 0.000058
367.960700 -0.000013
368.176100 0.000999
368.391600 -0.000428
368.607000 -0.000818
368.822500 -0.001090
369.038000 -0.000523
369.253500 0.000740
369.469000 -0.000539
369.684500 -0.000367
369.900100 -0.000417
370.115600 0.001528
370.331200 0.001756
370.546800 -0.000026
370.762400 -0.000765
370.978000 0.000349
371.193600 0.000385
371.409200 0.000138
371.624900 -0.000420
371.840500 -0.002221
372.056200 0.000068
372.271900 0.000479
372.487600 -0.001408
372.703300 -0.000287
372.919000 0.001522
373.134800 -0.000615
373.350500 0.000765
373.566300 -0.000690
373.782000 0.001050
373.997800 -0.000624
374.213600 0.000442
374.429400 0.000270
374.645300 -0.000156
374.861100 0.000336
375.077000 0.000772
375.292800 0.000783
375.508700 0.001006
375.724600 -0.000128
375.940500 0.000689
376.156400 0.000456
376.372400 -0.000714
376.588300 -0.000004
376.804300 0.000112
377.020300 -0.001051
377.236200 -0.000995
377.452200 -0.000686
377.668200 0.000225
377.884300 0.000053
378.100300 0.001150
378.316400 -0.001452
378.532400 -0.000105
378.748500 -0.000829
378.964600 -0.000165
379.180700 -0.000333
379.396800 -0.000093
379.612900 0.000844
379.829100 0.000589
380.045200 0.001045
380.261400 -0.000565
380.477600 -0.000994
380.693800 0.002251
380.910000 -0.001440
381.126200 0.001960
381.342400 -0.000776
381.558700 0.001816
381.774900 0.001213
381.991200 0.001412
382.207500 0.001088
382.423800 -0.000695
382.640100 -0.000554
382.856400 0.000147
383.072800 0.001771
383.289100 -0.000954
383.505500 -0.001176
383.721900 0.000146
383.938200 0.000423
384.154600 0.001862
384.371100 0.000790
384.587500 0.000638
384.803900 0.000280
385.020400 0.001156
385.236800 0.000396
385.453300 -0.000332
385.669800 0.001522
385.886300 0.000775
386.102800 0.000942
386.319400 0.000181
386.535900 -0.000065
386.752500 -0.000469
386.969000 0.001708
387.185600 0.001772
387.402200 0.000246
387.618800 0.000738
387.835500 0.001164
388.052100 -0.000789
388.268700 0.000569
388.485400 0.000885
388.702100 -0.000676
388.918800 0.001892
389.135500 -0.001109
389.352200 -0.000151
389.568900 0.001220
389.785600 -0.000106
390.002400 0.001381
390.219200 0.001831
390.435900 -0.001073
390.652700 0.001625
390.869500 -0.000675
391.086300 -0.000626
391.303200 0.000253
391.520000 0.001281
391.736900 0.001100
391.953700 0.001984
392.170600 0.000665
392.387500 0.001298
392.604400 -0.000262
392.821300 0.001643
393.038300 0.001135
393.255200 -0.000089
393.472200 0.001239
393.689100 0.000082
393.906100 0.002149
394.123100 0.001608
394.340100 0.001398
394.557200 0.001609
394.774200 0.000539
394.991200 0.001503
395.208300 0.001597
395.425400 0.001743
395.642500 0.000965
395.859600 0.000311
396.076700 0.001042
396.293800 0.001324
396.510900 -0.000319
396.728100 0.000329
396.945300 -0.000389
397.162400 0.001332
397.379600 0.000942
397.596800 0.002232
397.814000 0.000540
398.031300 -0.000797
398.248500 0.000507
398.465800 -0.000510
398.683000 0.002012
398.900300 0.001587
399.117600 0.002065
399.334900 0.000633
399.552200 0.000503
399.769600 0.001568
399.986900 -0.000043
400.204300 0.000910
400.421600 0.001599
400.639000 -0.000032
400.856400 0.000854
401.073800 0.003037
401.291200 0.000675
401.508700 0.001554
