# Wavelength (nm)	Intensity (a.u.)
197.7802	0.000980
197.9842	0.000157
198.1882	-0.000455
198.3922	-0.001300
198.5963	0.000980
198.8003	0.001549
199.0044	0.000473
199.2085	-0.000244
199.4126	0.000811
199.6168	0.000325
199.8209	0.001866
200.0251	0.000515
200.2292	0.000178
200.4334	-0.000244
200.6376	0.001148
200.8418	0.001528
201.0461	0.000346
201.2503	0.000600
201.4546	-0.000540
201.6589	0.001169
201.8631	0.000579
202.0674	0.000368
202.2718	0.000769
202.4761	-0.000097
202.6805	0.001697
202.8848	0.001676
203.0892	-0.000455
203.2936	-0.000941
203.4980	0.001486
203.7024	0.001381
203.9069	0.001022
204.1113	-0.000076
204.3158	0.001655
204.5203	-0.000540
204.7248	0.000557
204.9293	-0.000645
205.1338	0.000621
205.3384	0.000684
205.5430	0.000726
205.7475	-0.000033
205.9521	0.001381
206.1567	0.000980
206.3614	0.001549
206.5660	-0.001067
206.7706	0.001212
206.9753	-0.001215
207.1800	0.000304
207.3847	0.001444
207.5894	0.000325
207.7941	0.000684
207.9989	-0.000139
208.2036	-0.000033
208.4084	0.001486
208.6132	-0.000561
208.8180	0.002288
209.0228	0.000937
209.2276	0.000009
209.4325	0.000431
209.6373	-0.000371
209.8422	0.000452
210.0471	0.000747
210.2520	-0.000055
210.4569	0.000135
210.6618	-0.000667
210.8668	0.001275
211.0718	0.001296
211.2767	-0.000413
211.4817	0.000072
211.6867	0.001634
211.8918	0.000114
212.0968	0.000579
212.3018	-0.000730
212.5069	0.000304
212.7120	-0.000202
212.9171	0.001043
213.1222	-0.000835
213.3273	0.001486
213.5325	-0.001004
213.7376	0.000368
213.9428	0.000346
214.1480	0.000980
214.3532	-0.001046
214.5584	0.000769
214.7636	0.000769
214.9689	0.000811
215.1741	0.000030
215.3794	0.001676
215.5847	-0.000266
215.7900	0.000093
215.9953	-0.001511
216.2007	0.000790
216.4060	-0.000139
216.6114	0.000389
216.8168	0.000325
217.0222	0.001739
217.2276	0.000410
217.4330	0.001486
217.6384	0.001465
217.8439	0.000389
218.0494	0.000241
218.2548	0.000051
218.4603	-0.000139
218.6659	0.001739
218.8714	-0.000751
219.0769	0.001781
219.2825	-0.000223
219.4881	0.000325
219.6936	0.000452
219.8992	0.000157
220.1049	-0.000498
220.3105	-0.000519
220.5161	0.001486
220.7218	0.001739
220.9275	0.001486
221.1332	0.000853
221.3389	0.000853
221.5446	0.000874
221.7503	0.001106
221.9561	-0.000097
222.1618	-0.000455
222.3676	0.000811
222.5734	-0.001511
222.7792	0.001423
222.9850	0.000895
223.1909	0.001381
223.3967	-0.000287
223.6026	-0.000308
223.8085	-0.000055
224.0144	0.001634
224.2203	0.001950
224.4262	0.001592
224.6322	0.000283
224.8381	0.000895
225.0441	0.001824
225.2501	0.001570
225.4561	-0.000498
225.6621	0.001127
225.8681	0.000705
226.0742	0.000051
226.2802	-0.000709
226.4863	-0.000287
226.6924	0.000473
226.8985	0.001697
227.1046	-0.000603
227.3107	0.001148
227.5169	0.000009
227.7230	-0.000329
227.9292	-0.000434
228.1354	0.001676
228.3416	0.000515
228.5478	0.000579
228.7541	0.001043
228.9603	0.000895
229.1666	0.001676
229.3729	0.000895
229.5791	-0.000076
229.7855	0.000304
229.9918	0.001317
230.1981	0.001022
230.4045	0.000452
230.6108	0.000536
230.8172	0.000621
231.0236	0.000431
231.2300	0.000009
231.4364	0.000452
231.6429	0.000368
231.8493	0.000895
232.0558	0.001275
232.2623	0.001254
232.4688	-0.000561
232.6753	0.000515
232.8818	0.000494
233.0884	0.001148
233.2949	-0.001236
233.5015	-0.000097
233.7081	-0.000308
233.9147	0.000600
234.1213	-0.000244
234.3279	0.000769
234.5346	-0.000371
234.7413	0.001296
234.9479	0.001022
235.1546	0.000389
235.3613	-0.001279
235.5680	0.000958
235.7748	0.001528
235.9815	0.001381
236.1883	0.000114
236.3951	0.002119
236.6018	0.000600
236.8087	0.001191
237.0155	0.000473
237.2223	0.000600
237.4292	0.001001
237.6360	0.000937
237.8429	0.000178
238.0498	-0.000920
238.2567	0.000621
238.4636	0.000157
238.6706	0.000346
238.8775	-0.000202
239.0845	-0.000455
239.2915	0.000980
239.4985	-0.000244
239.7055	0.001169
239.9125	0.001085
240.1195	-0.000118
240.3266	-0.000266
240.5337	-0.000160
240.7407	0.000536
240.9478	0.000304
241.1549	0.000853
241.3621	-0.000582
241.5692	0.000051
241.7764	0.000895
241.9835	-0.000033
242.1907	-0.000371
242.3979	0.000916
242.6051	0.001085
242.8124	0.000790
243.0196	0.001191
243.2269	-0.000392
243.4341	-0.001279
243.6414	0.000178
243.8487	-0.000856
244.0560	0.001022
244.2634	0.000368
244.4707	0.000958
244.6781	0.001233
244.8854	0.000705
245.0928	-0.000244
245.3002	0.000452
245.5076	0.001528
245.7151	0.000874
245.9225	0.000705
246.1300	0.000832
246.3375	0.002119
246.5449	0.001634
246.7524	-0.000751
246.9600	0.000853
247.1675	0.000220
247.3750	-0.000181
247.5826	0.000663
247.7902	0.000262
247.9978	0.000368
248.2054	-0.000540
248.4130	0.000811
248.6206	0.001381
248.8283	0.000410
249.0359	-0.000477
249.2436	0.000747
249.4513	0.000262
249.6590	0.000325
249.8667	0.001444
250.0745	-0.000392
250.2822	0.000114
250.4900	0.000642
250.6978	-0.000730
250.9056	0.001106
251.1134	0.001212
251.3212	0.001212
251.5290	-0.000455
251.7369	0.000241
251.9447	0.000663
252.1526	0.001275
252.3605	0.001444
252.5684	-0.000076
252.7763	-0.000413
252.9843	-0.000561
253.1922	0.000389
253.4002	0.001127
253.6082	0.000220
253.8162	-0.001363
254.0242	0.000262
254.2322	0.000135
254.4402	-0.000455
254.6483	-0.000308
254.8564	0.000473
255.0644	0.000874
255.2725	-0.000561
255.4806	0.000642
255.6888	0.001127
255.8969	0.000199
256.1051	0.000579
256.3132	0.000368
256.5214	-0.000519
256.7296	0.000811
256.9378	0.000642
257.1460	0.000009
257.3543	-0.000076
257.5625	0.001148
257.7708	0.001486
257.9791	0.000684
258.1874	0.000178
258.3957	0.001148
258.6040	0.001001
258.8124	0.001655
259.0207	0.000389
259.2291	0.000072
259.4375	-0.000287
259.6459	-0.000920
259.8543	0.000684
260.0627	0.000262
260.2711	0.000389
260.4796	0.000452
260.6881	0.000009
260.8965	0.000916
261.1050	0.001950
261.3135	0.000958
261.5221	-0.001152
261.7306	0.000937
261.9392	-0.000498
262.1477	0.001993
262.3563	0.000895
262.5649	-0.000434
262.7735	0.001191
262.9822	0.001127
263.1908	0.000811
263.3995	0.002351
263.6081	-0.000118
263.8168	0.001739
264.0255	-0.000455
264.2342	0.002014
264.4429	-0.000076
264.6517	0.001718
264.8604	0.000072
265.0692	0.000389
265.2780	0.000410
265.4868	0.001423
265.6956	0.001148
265.9044	0.000452
266.1133	0.000389
266.3221	0.001866
266.5310	0.000515
266.7399	0.001296
266.9488	-0.000118
267.1577	0.001233
267.3666	-0.001046
267.5755	0.001402
267.7845	-0.000667
267.9935	0.000009
268.2024	-0.000413
268.4114	-0.000624
268.6205	0.001106
268.8295	0.001317
269.0385	-0.000667
269.2476	0.001022
269.4566	0.000684
269.6657	0.001634
269.8748	0.000199
270.0839	0.000853
270.2931	0.000241
270.5022	0.001127
270.7114	0.000093
270.9205	0.000093
271.1297	0.001676
271.3389	0.001296
271.5481	0.000600
271.7573	0.000853
271.9666	0.001507
272.1758	-0.000244
272.3851	0.000009
272.5944	-0.000223
272.8037	0.000557
273.0130	0.000199
273.2223	0.000051
273.4316	0.000283
273.6410	0.000621
273.8504	-0.001004
274.0597	0.001148
274.2691	0.000325
274.4785	-0.000920
274.6880	0.000346
274.8974	-0.000772
275.1069	0.001676
275.3163	-0.000582
275.5258	0.000621
275.7353	0.000262
275.9448	0.002182
276.1543	-0.001954
276.3639	0.000958
276.5734	-0.000519
276.7830	0.001444
276.9926	-0.000033
277.2022	0.000557
277.4118	0.000790
277.6214	0.001001
277.8310	-0.000709
278.0407	0.001739
278.2503	-0.000350
278.4600	-0.000983
278.6697	0.000452
278.8794	0.001549
279.0891	0.000220
279.2989	0.001993
279.5086	0.000346
279.7184	0.002520
279.9281	-0.000076
280.1379	0.001085
280.3477	0.000072
280.5576	0.001275
280.7674	-0.000223
280.9772	0.001423
281.1871	-0.000540
281.3970	0.000663
281.6069	0.001233
281.8168	0.000515
282.0267	-0.000688
282.2366	0.000621
282.4466	-0.000287
282.6565	0.000853
282.8665	0.001254
283.0765	0.000325
283.2865	0.000009
283.4965	0.002288
283.7065	-0.000118
283.9166	-0.000667
284.1266	-0.001321
284.3367	0.000832
284.5468	0.000600
284.7569	-0.000413
284.9670	-0.000287
285.1771	0.000663
285.3873	0.000769
285.5974	-0.000055
285.8076	0.000431
286.0178	0.000853
286.2280	0.001212
286.4382	0.001022
286.6484	0.000874
286.8587	0.001929
287.0689	0.000051
287.2792	0.000937
287.4895	0.000368
287.6998	-0.000139
287.9101	0.000431
288.1204	-0.000055
288.3308	0.000769
288.5411	0.001718
288.7515	0.000009
288.9619	0.001212
289.1723	-0.000645
289.3827	-0.000329
289.5931	0.000178
289.8035	0.001064
290.0140	0.000916
290.2245	0.000579
290.4349	-0.000223
290.6454	0.000937
290.8559	0.000241
291.0665	0.000368
291.2770	-0.000329
291.4875	0.000494
291.6981	0.000621
291.9087	0.000452
292.1193	0.001402
292.3299	0.000283
292.5405	0.000304
292.7511	0.000937
292.9618	0.000199
293.1724	0.001592
293.3831	0.000220
293.5938	0.000325
293.8045	0.000262
294.0152	0.001781
294.2260	0.000262
294.4367	-0.000455
294.6475	-0.000244
294.8582	0.001191
295.0690	-0.000434
295.2798	0.000494
295.4906	-0.001046
295.7015	0.000874
295.9123	-0.000498
296.1232	0.001212
296.3340	-0.000350
296.5449	0.000663
296.7558	0.000452
296.9667	0.000368
297.1777	0.000600
297.3886	0.000937
297.5995	0.001423
297.8105	-0.000244
298.0215	-0.000160
298.2325	0.001191
298.4435	-0.000139
298.6545	0.000220
298.8656	0.000832
299.0766	0.000431
299.2877	0.000557
299.4988	0.000114
299.7099	0.000199
299.9210	0.000895
300.1321	0.000009
300.3432	0.001169
300.5544	-0.000920
300.7655	0.000874
300.9767	0.000410
301.1879	0.001254
301.3991	-0.000160
301.6103	0.001191
301.8215	0.000452
302.0328	-0.000202
302.2441	0.001655
302.4553	-0.000223
302.6666	0.001233
302.8779	0.000747
303.0892	-0.000160
303.3006	0.001317
303.5119	0.000895
303.7233	0.000600
303.9346	0.001507
304.1460	0.000515
304.3574	0.000937
304.5688	0.000515
304.7803	-0.000519
304.9917	0.001549
305.2031	0.000093
305.4146	0.002689
305.6261	0.001528
305.8376	0.000790
306.0491	-0.000709
306.2606	0.001739
306.4722	-0.000244
306.6837	0.000220
306.8953	0.000853
307.1069	0.000684
307.3184	-0.000308
307.5301	0.001507
307.7417	-0.000076
307.9533	0.000494
308.1650	0.000410
308.3766	-0.000139
308.5883	0.000368
308.8000	0.000937
309.0117	0.001718
309.2234	0.002119
309.4351	-0.001152
309.6469	0.001359
309.8586	0.000621
310.0704	0.001233
310.2822	0.000452
310.4940	0.001317
310.7058	0.000853
310.9176	0.000853
311.1295	0.000515
311.3413	0.000769
311.5532	0.000325
311.7651	0.000262
311.9770	0.000157
312.1889	-0.000139
312.4008	0.000980
312.6127	0.000283
312.8247	0.000769
313.0366	0.000283
313.2486	0.000557
313.4606	0.001001
313.6726	0.000494
313.8846	0.001338
314.0967	-0.001722
314.3087	0.000980
314.5208	0.000811
314.7328	0.000262
314.9449	-0.000076
315.1570	-0.000097
315.3692	0.000705
315.5813	-0.000371
315.7934	0.001085
316.0056	0.001106
316.2177	0.000916
316.4299	0.001465
316.6421	0.000747
316.8543	0.000536
317.0666	0.000832
317.2788	0.000325
317.4911	0.000199
317.7033	0.001022
317.9156	0.001212
318.1279	0.000431
318.3402	-0.000434
318.5525	0.001908
318.7649	0.000874
318.9772	0.001148
319.1896	-0.000624
319.4019	0.002077
319.6143	0.000030
319.8267	0.000009
320.0392	0.001908
320.2516	0.000114
320.4640	0.000178
320.6765	0.000980
320.8890	-0.001405
321.1014	0.001697
321.3139	0.000958
321.5265	0.002372
321.7390	0.001971
321.9515	0.001064
322.1641	0.000178
322.3766	0.000346
322.5892	-0.000561
322.8018	0.001866
323.0144	0.000178
323.2270	0.000452
323.4397	0.000093
323.6523	0.000262
323.8650	0.000747
324.0777	-0.000076
324.2904	-0.000645
324.5031	0.001254
324.7158	0.000726
324.9285	0.000790
325.1412	-0.000012
325.3540	0.000030
325.5668	0.000220
325.7796	-0.000012
325.9924	0.000051
326.2052	0.000621
326.4180	0.000790
326.6308	0.000747
326.8437	0.001697
327.0566	-0.000561
327.2694	-0.000434
327.4823	-0.000160
327.6952	0.001296
327.9082	0.001275
328.1211	0.000579
328.3340	-0.000308
328.5470	0.000220
328.7600	0.000452
328.9730	-0.000582
329.1860	0.001254
329.3990	0.000895
329.6120	0.000705
329.8251	0.001085
330.0381	0.000874
330.2512	0.000157
330.4643	0.001233
330.6774	0.000600
330.8905	0.001592
331.1036	-0.000033
331.3167	-0.000244
331.5299	-0.001067
331.7431	0.000262
331.9562	0.000178
332.1694	0.000557
332.3826	-0.000244
332.5959	0.001697
332.8091	-0.001046
333.0223	0.000642
333.2356	0.000684
333.4489	0.001824
333.6622	0.000093
333.8755	0.001359
334.0888	0.000473
334.3021	0.001613
334.5154	0.000157
334.7288	0.001486
334.9422	0.000473
335.1555	0.002098
335.3689	0.000515
335.5823	0.001655
335.7958	0.000536
336.0092	0.001781
336.2227	0.000093
336.4361	0.000220
336.6496	0.000684
336.8631	0.001528
337.0766	0.000515
337.2901	-0.000308
337.5036	0.000811
337.7172	0.002225
337.9307	0.000473
338.1443	0.000283
338.3579	0.000600
338.5715	0.000410
338.7851	0.001001
338.9987	0.002035
339.2124	0.000642
339.4260	0.000494
339.6397	0.000030
339.8533	0.001655
340.0670	0.000220
340.2807	0.000937
340.4945	0.001043
340.7082	0.000431
340.9219	0.001760
341.1357	0.000811
341.3495	-0.000202
341.5633	0.001127
341.7771	0.001655
341.9909	0.001127
342.2047	0.000600
342.4185	0.000980
342.6324	0.001106
342.8463	0.001465
343.0601	-0.000962
343.2740	0.000579
343.4879	0.000557
343.7019	0.001381
343.9158	0.001127
344.1297	0.000663
344.3437	0.000452
344.5577	0.000157
344.7717	0.000621
344.9857	0.001148
345.1997	0.000220
345.4137	0.000916
345.6277	-0.000308
345.8418	0.001486
346.0559	-0.000899
346.2699	0.001929
346.4840	0.000178
346.6981	0.001043
346.9123	0.000368
347.1264	0.002077
347.3406	0.000515
347.5547	0.001908
347.7689	0.001212
347.9831	-0.000160
348.1973	-0.000645
348.4115	0.000600
348.6257	0.000368
348.8400	0.000958
349.0542	-0.000434
349.2685	0.001212
349.4828	-0.000434
349.6971	0.001486
349.9114	-0.000097
350.1257	-0.000941
350.3400	0.002351
350.5544	0.000642
350.7687	0.000220
350.9831	0.001233
351.1975	-0.001468
351.4119	0.000705
351.6263	0.001317
351.8407	0.000093
352.0552	0.000431
352.2696	0.001043
352.4841	0.000368
352.6986	0.001191
352.9131	0.000790
353.1276	0.000600
353.3421	-0.000645
353.5566	0.000642
353.7712	-0.000181
353.9858	0.000283
354.2003	0.000368
354.4149	-0.000223
354.6295	-0.000160
354.8441	0.001001
355.0588	0.000980
355.2734	0.001296
355.4881	0.000642
355.7027	0.001043
355.9174	0.000262
356.1321	0.000515
356.3468	-0.000413
356.5615	0.001085
356.7763	0.000473
356.9910	-0.000266
357.2058	0.000600
357.4206	-0.000266
357.6353	0.001528
357.8501	0.000937
358.0650	0.000557
358.2798	0.001613
358.4946	0.000304
358.7095	0.000663
358.9243	-0.001342
359.1392	0.001381
359.3541	0.001212
359.5690	0.001338
359.7839	0.000452
359.9989	0.000895
360.2138	0.000958
360.4288	0.002035
360.6438	0.001338
360.8587	0.000199
361.0737	0.000895
361.2888	0.000895
361.5038	0.000431
361.7188	0.000346
361.9339	-0.000561
362.1489	0.000874
362.3640	-0.001279
362.5791	0.001106
362.7942	0.000811
363.0093	0.001127
363.2245	0.000431
363.4396	-0.000202
363.6548	0.000368
363.8699	0.001402
364.0851	-0.000329
364.3003	0.001528
364.5155	0.001444
364.7308	0.001803
364.9460	0.000389
365.1612	0.002246
365.3765	-0.000160
365.5918	0.002309
365.8071	0.000726
366.0224	0.000600
366.2377	0.000494
366.4530	-0.001152
366.6684	0.000684
366.8837	0.001275
367.0991	0.001022
367.3145	0.001212
367.5299	0.000579
367.7453	0.001739
367.9607	0.000262
368.1761	0.000684
368.3916	0.000304
368.6070	0.001676
368.8225	0.000199
369.0380	0.001929
369.2535	0.001085
369.4690	0.000958
369.6845	0.000642
369.9001	0.000557
370.1156	-0.001490
370.3312	0.001233
370.5468	0.000135
370.7624	-0.000899
370.9780	-0.000308
371.1936	0.002140
371.4092	0.000937
371.6249	-0.000582
371.8405	0.001803
372.0562	0.001338
372.2719	0.000726
372.4876	-0.000561
372.7033	-0.000076
372.9190	0.001866
373.1348	-0.000329
373.3505	0.000621
373.5663	-0.000329
373.7820	0.002119
373.9978	0.000494
374.2136	-0.000582
374.4294	0.001022
374.6453	0.001528
374.8611	-0.000455
375.0770	0.000853
375.2928	-0.000730
375.5087	-0.000181
375.7246	0.000747
375.9405	0.000557
376.1564	-0.000709
376.3724	0.000220
376.5883	-0.000878
376.8043	0.000009
377.0203	-0.000498
377.2362	0.000283
377.4522	0.000009
377.6682	0.000600
377.8843	0.001718
378.1003	0.000663
378.3164	-0.000814
378.5324	0.000579
378.7485	0.000494
378.9646	0.001148
379.1807	0.001718
379.3968	-0.001067
379.6129	0.000600
379.8291	0.000072
380.0452	0.001106
380.2614	0.000747
380.4776	-0.000012
380.6938	0.001634
380.9100	0.000494
381.1262	0.000790
381.3424	-0.001764
381.5587	0.000853
381.7749	-0.000498
381.9912	-0.000033
382.2075	0.000178
382.4238	-0.000160
382.6401	0.001148
382.8564	0.001022
383.0728	0.000262
383.2891	0.001043
383.5055	0.002098
383.7219	0.000325
383.9382	-0.000055
384.1546	0.001317
384.3711	0.001486
384.5875	0.000325
384.8039	0.001001
385.0204	0.001359
385.2368	0.000747
385.4533	0.000937
385.6698	0.000220
385.8863	0.001444
386.1028	0.000093
386.3194	0.003238
386.5359	0.001106
386.7525	0.000853
386.9690	0.001296
387.1856	0.001212
387.4022	0.001064
387.6188	0.003069
387.8355	0.002267
388.0521	0.001022
388.2687	0.002035
388.4854	0.002499
388.7021	0.002267
388.9188	0.003406
389.1355	0.002330
389.3522	0.002900
389.5689	0.002415
389.7856	0.003533
390.0024	0.004145
390.2192	0.002393
390.4359	0.003491
390.6527	0.004715
390.8695	0.003850
391.0863	0.003660
391.3032	0.004230
391.5200	0.005031
391.7369	0.005264
391.9537	0.006783
392.1706	0.005348
392.3875	0.006614
392.6044	0.007902
392.8213	0.006804
393.0383	0.005939
393.2552	0.008514
393.4722	0.007479
393.6891	0.009611
393.9061	0.006403
394.1231	0.008134
394.3401	0.009611
394.5572	0.009484
394.7742	0.010561
394.9912	0.010603
395.2083	0.009864
395.4254	0.009231
395.6425	0.011046
395.8596	0.010814
396.0767	0.012038
396.2938	0.011658
396.5109	0.012439
396.7281	0.011932
396.9453	0.013009
397.1624	0.013030
397.3796	0.013051
397.5968	0.015879
397.8140	0.015647
398.0313	0.015499
398.2485	0.016617
398.4658	0.016871
398.6830	0.017187
398.9003	0.018031
399.1176	0.018031
399.3349	0.018474
399.5522	0.019086
399.7696	0.018791
399.9869	0.018031
400.2043	0.017060
400.4216	0.019424
400.6390	0.018770
400.8564	0.019614
401.0738	0.019804
401.2912	0.021112
401.5087	0.021112
401.7261	0.020944
401.9436	0.020564
402.1610	0.021661
402.3785	0.021956
402.5960	0.021893
402.8135	0.022210
403.0310	0.022695
403.2486	0.022125
403.4661	0.020796
403.6837	0.021260
403.9013	0.024088
404.1189	0.024447
404.3365	0.023982
404.5541	0.022168
404.7717	0.024658
404.9893	0.025270
405.2070	0.025882
405.4246	0.025417
405.6423	0.025755
405.8600	0.026684
406.0777	0.025375
406.2954	0.025924
406.5131	0.024489
406.7309	0.026620
406.9486	0.023898
407.1664	0.024827
407.3842	0.025818
407.6020	0.024151
407.8198	0.023708
408.0376	0.024700
408.2554	0.025650
408.4733	0.024995
408.6911	0.026409
408.9090	0.027042
409.1269	0.026620
409.3448	0.026641
409.5627	0.028309
409.7806	0.028330
409.9985	0.026916
410.2165	0.026409
410.4344	0.026051
410.6524	0.027549
410.8704	0.026198
411.0884	0.027085
411.3064	0.026684
411.5244	0.025375
411.7424	0.025228
411.9605	0.027612
412.1785	0.028794
412.3966	0.028942
412.6147	0.029406
412.8328	0.030440
413.0509	0.031685
413.2690	0.029828
413.4871	0.028731
413.7053	0.028140
413.9234	0.028963
414.1416	0.031115
414.3598	0.030947
414.5780	0.029111
414.7962	0.028625
415.0144	0.030630
415.2326	0.029279
415.4509	0.030736
415.6692	0.029554
415.8874	0.028667
416.1057	0.030440
416.3240	0.028815
416.5423	0.029976
416.7606	0.027464
416.9790	0.031052
417.1973	0.028055
417.4157	0.030039
417.6341	0.028646
417.8524	0.028836
418.0708	0.029406
418.2893	0.029807
418.5077	0.030335
418.7261	0.030271
418.9446	0.029891
419.1630	0.030525
419.3815	0.030187
419.6000	0.029406
419.8185	0.029638
420.0370	0.031770
420.2555	0.031622
420.4741	0.031981
420.6926	0.033310
420.9112	0.033542
421.1298	0.033627
421.3483	0.036349
421.5669	0.033774
421.7856	0.035927
422.0042	0.037636
422.2228	0.039071
422.4415	0.038333
422.6601	0.035695
422.8788	0.035547
423.0975	0.035020
423.3162	0.033796
423.5349	0.034640
423.7536	0.032403
423.9724	0.032128
424.1911	0.030989
424.4099	0.034302
424.6287	0.032445
424.8475	0.033500
425.0663	0.033141
425.2851	0.034281
425.5039	0.032719
425.7228	0.032550
425.9416	0.031791
426.1605	0.029744
426.3793	0.030250
426.5982	0.030672
426.8171	0.031664
427.0361	0.031537
427.2550	0.029301
427.4739	0.031664
427.6929	0.031622
427.9118	0.031664
428.1308	0.033711
428.3498	0.030313
428.5688	0.029596
428.7878	0.032086
429.0068	0.031010
429.2259	0.031348
429.4449	0.033247
429.6640	0.036623
