# Wavelength (nm)	Intensity (a.u.)
197.7802	-0.000317
197.9842	-0.001097
198.1882	0.001477
198.3922	0.000443
198.5963	0.001625
198.8003	-0.000781
199.0044	0.000696
199.2085	0.000148
199.4126	0.000950
199.6168	-0.000739
199.8209	0.001203
200.0251	0.001519
200.2292	0.001329
200.4334	0.000401
200.6376	-0.000021
200.8418	0.000232
201.0461	0.000739
201.2503	0.000485
201.4546	-0.001182
201.6589	0.000190
201.8631	0.000570
202.0674	-0.000106
202.2718	-0.000274
202.4761	-0.000042
202.6805	0.000696
202.8848	0.001941
203.0892	0.002110
203.2936	0.000612
203.4980	0.000485
203.7024	0.000380
203.9069	0.000253
204.1113	-0.000971
204.3158	0.001625
204.5203	0.000274
204.7248	0.001372
204.9293	0.000528
205.1338	0.000549
205.3384	-0.000063
205.5430	0.001414
205.7475	0.001245
205.9521	-0.000295
206.1567	0.000464
206.3614	0.000802
206.5660	0.000612
206.7706	0.001878
206.9753	-0.000169
207.1800	0.001836
207.3847	0.000422
207.5894	0.001266
207.7941	-0.000696
207.9989	0.000485
208.2036	0.000042
208.4084	0.000106
208.6132	-0.000295
208.8180	0.000042
209.0228	0.001097
209.2276	-0.000084
209.4325	0.000380
209.6373	-0.000781
209.8422	0.000317
210.0471	0.001498
210.2520	0.000063
210.4569	0.000443
210.6618	0.000675
210.8668	0.001540
211.0718	0.000823
211.2767	0.000549
211.4817	-0.000253
211.6867	0.000865
211.8918	-0.000506
212.0968	0.002089
212.3018	-0.000865
212.5069	0.001414
212.7120	0.000675
212.9171	0.000675
213.1222	-0.000928
213.3273	0.001456
213.5325	0.000042
213.7376	0.000549
213.9428	0.001477
214.1480	0.000528
214.3532	-0.000253
214.5584	0.001245
214.7636	0.000338
214.9689	0.001372
215.1741	0.000443
215.3794	0.001055
215.5847	0.001055
215.7900	0.000253
215.9953	0.000422
216.2007	0.001477
216.4060	0.000232
216.6114	0.000865
216.8168	-0.000886
217.0222	0.001308
217.2276	0.000591
217.4330	0.000464
217.6384	0.001625
217.8439	0.000528
218.0494	0.001034
218.2548	0.000570
218.4603	0.000633
218.6659	0.001498
218.8714	0.000992
219.0769	0.001815
219.2825	0.001561
219.4881	0.002363
219.6936	-0.000401
219.8992	0.000823
220.1049	-0.000084
220.3105	0.001203
220.5161	-0.000021
220.7218	0.000633
220.9275	0.000654
221.1332	0.000570
221.3389	-0.000654
221.5446	0.000317
221.7503	-0.000633
221.9561	0.000359
222.1618	-0.000317
222.3676	0.002005
222.5734	0.001350
222.7792	0.000633
222.9850	-0.000253
223.1909	0.002089
223.3967	0.001730
223.6026	0.000211
223.8085	0.000506
224.0144	0.000633
224.2203	-0.000506
224.4262	0.001772
224.6322	-0.000506
224.8381	0.001899
225.0441	0.000422
225.2501	-0.000422
225.4561	0.001203
225.6621	0.000380
225.8681	-0.000169
226.0742	0.000127
226.2802	-0.000464
226.4863	-0.000211
226.6924	-0.000232
226.8985	0.000865
227.1046	-0.000654
227.3107	0.001456
227.5169	0.000464
227.7230	-0.000211
227.9292	0.001604
228.1354	0.000654
228.3416	0.000612
228.5478	0.001667
228.7541	-0.000612
228.9603	0.000549
229.1666	0.000739
229.3729	0.000633
229.5791	0.000084
229.7855	-0.000317
229.9918	-0.000127
230.1981	0.000612
230.4045	0.000169
230.6108	0.000401
230.8172	0.000274
231.0236	0.000485
231.2300	0.000549
231.4364	0.000844
231.6429	0.000274
231.8493	-0.000950
232.0558	-0.000127
232.2623	0.000865
232.4688	0.001329
232.6753	0.000612
232.8818	0.000696
233.0884	0.001435
233.2949	0.000760
233.5015	-0.000528
233.7081	0.000401
233.9147	0.001393
234.1213	0.000865
234.3279	0.001688
234.5346	-0.000042
234.7413	0.001161
234.9479	0.001118
235.1546	-0.000127
235.3613	0.000570
235.5680	0.000928
235.7748	0.000823
235.9815	-0.000021
236.1883	-0.000211
236.3951	0.002026
236.6018	0.001751
236.8087	0.000084
237.0155	-0.000865
237.2223	0.000084
237.4292	0.001561
237.6360	-0.001097
237.8429	0.000950
238.0498	0.000506
238.2567	-0.000464
238.4636	0.000612
238.6706	-0.001287
238.8775	0.001245
239.0845	0.000907
239.2915	0.001435
239.4985	-0.000021
239.7055	-0.000612
239.9125	0.001245
240.1195	0.000907
240.3266	-0.000127
240.5337	0.001076
240.7407	0.000992
240.9478	0.000654
241.1549	0.001097
241.3621	0.001097
241.5692	0.000084
241.7764	0.000359
241.9835	0.000021
242.1907	-0.000401
242.3979	0.002026
242.6051	-0.000211
242.8124	0.001139
243.0196	0.000591
243.2269	0.000633
243.4341	0.000169
243.6414	0.000464
243.8487	0.000443
244.0560	-0.000148
244.2634	0.001055
244.4707	0.000190
244.6781	0.001287
244.8854	0.001139
245.0928	0.000464
245.3002	0.000528
245.5076	0.000380
245.7151	-0.000781
245.9225	-0.000148
246.1300	0.000380
246.3375	0.000506
246.5449	0.001456
246.7524	0.000401
246.9600	-0.001540
247.1675	0.001266
247.3750	0.000865
247.5826	0.000485
247.7902	-0.000591
247.9978	0.002279
248.2054	0.001540
248.4130	0.000675
248.6206	0.000844
248.8283	0.000823
249.0359	0.001772
249.2436	0.000380
249.4513	-0.000760
249.6590	-0.000886
249.8667	0.000464
250.0745	0.000211
250.2822	-0.000021
250.4900	0.000633
250.6978	0.001034
250.9056	0.001266
251.1134	0.000928
251.3212	0.000317
251.5290	0.001203
251.7369	0.001435
251.9447	0.000063
252.1526	0.001308
252.3605	-0.000190
252.5684	-0.000844
252.7763	0.000464
252.9843	0.001224
253.1922	-0.000274
253.4002	0.000802
253.6082	0.000844
253.8162	0.001435
254.0242	-0.000317
254.2322	0.000274
254.4402	-0.001245
254.6483	0.000675
254.8564	0.000443
255.0644	0.000338
255.2725	0.001013
255.4806	0.001266
255.6888	-0.000169
255.8969	0.000232
256.1051	0.000401
256.3132	0.000253
256.5214	0.000675
256.7296	-0.000633
256.9378	0.000570
257.1460	0.000612
257.3543	0.000760
257.5625	0.000823
257.7708	-0.000675
257.9791	0.001456
258.1874	0.002195
258.3957	-0.000760
258.6040	-0.000380
258.8124	0.000317
259.0207	-0.000169
259.2291	-0.000148
259.4375	0.000485
259.6459	-0.000232
259.8543	0.000127
260.0627	-0.000042
260.2711	0.000528
260.4796	0.000274
260.6881	0.000190
260.8965	0.000591
261.1050	-0.000127
261.3135	0.001519
261.5221	0.000654
261.7306	0.000338
261.9392	-0.000190
262.1477	0.001076
262.3563	0.000633
262.5649	0.000464
262.7735	-0.000211
262.9822	-0.000506
263.1908	-0.000084
263.3995	0.001182
263.6081	0.000401
263.8168	0.000317
264.0255	-0.000401
264.2342	0.001878
264.4429	0.001182
264.6517	0.000443
264.8604	0.000506
265.0692	0.000338
265.2780	0.000401
265.4868	0.001751
265.6956	0.000823
265.9044	-0.000190
266.1133	0.000823
266.3221	0.000591
266.5310	-0.000317
266.7399	0.000190
266.9488	0.000844
267.1577	-0.000359
267.3666	-0.000865
267.5755	0.000338
267.7845	-0.000021
267.9935	-0.000612
268.2024	0.000802
268.4114	0.001287
268.6205	-0.000865
268.8295	-0.001139
269.0385	-0.000084
269.2476	0.001161
269.4566	-0.000485
269.6657	0.000211
269.8748	0.000211
270.0839	0.000907
270.2931	-0.000717
270.5022	0.000422
270.7114	-0.000612
270.9205	0.001498
271.1297	0.000295
271.3389	-0.000084
271.5481	0.000380
271.7573	0.002047
271.9666	-0.000760
272.1758	0.000886
272.3851	0.000000
272.5944	-0.000253
272.8037	0.001751
273.0130	0.000781
273.2223	0.000823
273.4316	0.000295
273.6410	0.000802
273.8504	0.000760
274.0597	0.000823
274.2691	0.000211
274.4785	0.001266
274.6880	0.001983
274.8974	0.000000
275.1069	-0.000295
275.3163	0.000992
275.5258	0.000717
275.7353	0.000295
275.9448	-0.000211
276.1543	-0.000654
276.3639	-0.000317
276.5734	0.001498
276.7830	0.000338
276.9926	0.000274
277.2022	0.002195
277.4118	0.000253
277.6214	0.001983
277.8310	-0.000591
278.0407	0.000802
278.2503	-0.000570
278.4600	0.001224
278.6697	-0.000950
278.8794	0.000992
279.0891	0.000760
279.2989	0.000528
279.5086	0.001139
279.7184	0.001646
279.9281	-0.000464
280.1379	0.000485
280.3477	0.000253
280.5576	0.000148
280.7674	0.001013
280.9772	0.000717
281.1871	-0.000021
281.3970	0.001055
281.6069	0.000717
281.8168	-0.000570
282.0267	-0.000253
282.2366	0.000633
282.4466	0.000464
282.6565	0.001646
282.8665	-0.000401
283.0765	0.000422
283.2865	0.001308
283.4965	-0.000823
283.7065	0.001034
283.9166	0.002258
284.1266	0.000591
284.3367	0.000359
284.5468	0.000654
284.7569	0.001878
284.9670	0.000359
285.1771	0.001435
285.3873	0.001688
285.5974	0.000317
285.8076	0.000739
286.0178	0.000950
286.2280	-0.001076
286.4382	0.000190
286.6484	0.000063
286.8587	0.001625
287.0689	0.000211
287.2792	-0.000950
287.4895	0.000359
287.6998	0.001139
287.9101	0.000781
288.1204	0.002152
288.3308	0.000422
288.5411	0.000760
288.7515	0.000127
288.9619	0.001435
289.1723	0.001435
289.3827	0.000781
289.5931	-0.000295
289.8035	0.001477
290.0140	0.000084
290.2245	-0.000274
290.4349	0.000253
290.6454	0.002384
290.8559	0.000063
291.0665	0.001055
291.2770	0.000886
291.4875	0.001583
291.6981	0.000675
291.9087	0.001308
292.1193	-0.000696
292.3299	0.002195
292.5405	0.000760
292.7511	-0.000886
292.9618	0.000464
293.1724	0.000696
293.3831	-0.000211
293.5938	0.001604
293.8045	0.000549
294.0152	0.000886
294.2260	0.000084
294.4367	0.000190
294.6475	0.000633
294.8582	0.000169
295.0690	0.002216
295.2798	0.001836
295.4906	0.001456
295.7015	-0.000528
295.9123	0.000380
296.1232	-0.000253
296.3340	0.000760
296.5449	0.001751
296.7558	-0.000422
296.9667	0.000485
297.1777	0.001815
297.3886	0.001139
297.5995	0.000148
297.8105	-0.000295
298.0215	0.001329
298.2325	0.001646
298.4435	-0.000844
298.6545	0.001414
298.8656	0.001435
299.0766	0.002026
299.2877	0.000591
299.4988	0.000992
299.7099	0.001329
299.9210	0.001224
300.1321	-0.000528
300.3432	0.001224
300.5544	0.001034
300.7655	0.000549
300.9767	0.001308
301.1879	0.000422
301.3991	0.001034
301.6103	0.000042
301.8215	0.001372
302.0328	0.000886
302.2441	0.000063
302.4553	0.000950
302.6666	-0.001034
302.8779	0.001920
303.0892	0.000802
303.3006	0.000802
303.5119	0.000992
303.7233	-0.000084
303.9346	0.000190
304.1460	0.000928
304.3574	-0.000380
304.5688	-0.000211
304.7803	-0.000485
304.9917	0.000211
305.2031	-0.000021
305.4146	0.000781
305.6261	0.000739
305.8376	0.001583
306.0491	-0.000380
306.2606	0.002511
306.4722	-0.000084
306.6837	0.001034
306.8953	-0.000485
307.1069	0.001308
307.3184	0.000549
307.5301	0.002005
307.7417	-0.000148
307.9533	0.000760
308.1650	0.000042
308.3766	0.000823
308.5883	0.000633
308.8000	0.000612
309.0117	0.000907
309.2234	0.000886
309.4351	0.000591
309.6469	0.001139
309.8586	0.000675
310.0704	0.000696
310.2822	0.000823
310.4940	-0.000127
310.7058	0.000169
310.9176	0.001477
311.1295	0.000232
311.3413	0.000717
311.5532	0.000570
311.7651	0.001561
311.9770	-0.000506
312.1889	0.001772
312.4008	0.000380
312.6127	-0.000485
312.8247	0.000549
313.0366	0.000148
313.2486	-0.000675
313.4606	0.000401
313.6726	0.000063
313.8846	-0.000359
314.0967	0.000591
314.3087	0.001287
314.5208	-0.000739
314.7328	0.000021
314.9449	0.001097
315.1570	0.000042
315.3692	0.000760
315.5813	0.000844
315.7934	-0.000760
316.0056	0.000169
316.2177	0.001456
316.4299	0.001329
316.6421	0.001013
316.8543	0.000570
317.0666	0.000760
317.2788	0.001794
317.4911	0.000443
317.7033	0.001034
317.9156	0.000992
318.1279	0.000211
318.3402	0.000084
318.5525	0.000127
318.7649	0.001097
318.9772	0.001139
319.1896	-0.000127
319.4019	0.000211
319.6143	0.001772
319.8267	0.002279
320.0392	0.000021
320.2516	0.000549
320.4640	0.000781
320.6765	0.001182
320.8890	0.000654
321.1014	-0.000148
321.3139	-0.000084
321.5265	0.000422
321.7390	0.001730
321.9515	0.001097
322.1641	0.000190
322.3766	0.000148
322.5892	0.000739
322.8018	0.001372
323.0144	0.000950
323.2270	0.001435
323.4397	-0.000190
323.6523	0.000232
323.8650	0.000612
324.0777	0.001203
324.2904	0.000928
324.5031	0.001540
324.7158	-0.000485
324.9285	0.001224
325.1412	0.000633
325.3540	0.000612
325.5668	0.001941
325.7796	0.001857
325.9924	0.001076
326.2052	-0.000148
326.4180	-0.000190
326.6308	0.000633
326.8437	0.001477
327.0566	0.000823
327.2694	0.000528
327.4823	-0.000106
327.6952	0.000528
327.9082	0.001139
328.1211	0.000148
328.3340	0.001182
328.5470	-0.000042
328.7600	0.000971
328.9730	-0.000464
329.1860	0.001667
329.3990	0.000654
329.6120	-0.001097
329.8251	0.000127
330.0381	0.001899
330.2512	0.000169
330.4643	-0.000570
330.6774	0.000464
330.8905	0.000317
331.1036	0.001435
331.3167	0.000169
331.5299	0.000021
331.7431	0.000591
331.9562	-0.000021
332.1694	-0.000127
332.3826	0.000971
332.5959	0.001709
332.8091	0.001013
333.0223	0.000042
333.2356	0.000696
333.4489	0.000865
333.6622	0.000127
333.8755	0.001815
334.0888	-0.001161
334.3021	0.001477
334.5154	-0.000232
334.7288	-0.000084
334.9422	0.000232
335.1555	0.000971
335.3689	0.000401
335.5823	0.000865
335.7958	0.001498
336.0092	0.000506
336.2227	0.001266
336.4361	0.001540
336.6496	-0.000549
336.8631	0.000464
337.0766	-0.000295
337.2901	0.000000
337.5036	0.000295
337.7172	0.000506
337.9307	0.001076
338.1443	0.000928
338.3579	-0.000506
338.5715	0.001435
338.7851	-0.000211
338.9987	0.000823
339.2124	0.000971
339.4260	0.001097
339.6397	-0.000359
339.8533	0.000760
340.0670	0.000844
340.2807	0.000907
340.4945	0.000148
340.7082	0.001097
340.9219	0.001182
341.1357	0.000907
341.3495	-0.000549
341.5633	0.000380
341.7771	0.000274
341.9909	-0.000422
342.2047	-0.000654
342.4185	0.000422
342.6324	0.000950
342.8463	0.001772
343.0601	0.001477
343.2740	0.000570
343.4879	0.000042
343.7019	0.001730
343.9158	0.001561
344.1297	0.000232
344.3437	0.000338
344.5577	0.000717
344.7717	0.000443
344.9857	-0.000021
345.1997	0.001667
345.4137	0.001350
345.6277	-0.000654
345.8418	0.001224
346.0559	0.000928
346.2699	0.000042
346.4840	0.001245
346.6981	0.001815
346.9123	0.000422
347.1264	0.000253
347.3406	0.000717
347.5547	0.000211
347.7689	0.000506
347.9831	0.000359
348.1973	0.000886
348.4115	0.000485
348.6257	0.001161
348.8400	-0.001709
349.0542	0.001561
349.2685	0.001118
349.4828	0.002005
349.6971	0.000127
349.9114	0.002047
350.1257	0.000886
350.3400	0.001329
350.5544	-0.001224
350.7687	0.000739
350.9831	0.001034
351.1975	0.001245
351.4119	0.000992
351.6263	-0.000570
351.8407	0.002110
352.0552	0.000506
352.2696	0.001414
352.4841	0.001498
352.6986	0.001941
352.9131	0.000443
353.1276	0.000802
353.3421	0.000295
353.5566	0.001287
353.7712	0.001076
353.9858	0.001815
354.2003	-0.000570
354.4149	0.000506
354.6295	0.000380
354.8441	0.002891
355.0588	0.000717
355.2734	0.002722
355.4881	0.000654
355.7027	0.001329
355.9174	-0.000865
356.1321	0.001308
356.3468	0.000781
356.5615	-0.000295
356.7763	0.000380
356.9910	0.001308
357.2058	0.000443
357.4206	0.001034
357.6353	0.000950
357.8501	0.000338
358.0650	0.000148
358.2798	0.000549
358.4946	0.000570
358.7095	0.001435
358.9243	0.001139
359.1392	0.001097
359.3541	0.000865
359.5690	-0.000084
359.7839	0.000823
359.9989	-0.000401
360.2138	0.000274
360.4288	0.000886
360.6438	-0.000021
360.8587	0.000232
361.0737	0.000190
361.2888	0.000865
361.5038	0.001498
361.7188	0.001899
361.9339	0.000485
362.1489	0.001287
362.3640	-0.000106
362.5791	-0.000084
362.7942	0.000464
363.0093	0.000950
363.2245	0.000317
363.4396	0.000295
363.6548	-0.000317
363.8699	0.000781
364.0851	0.001878
364.3003	0.001414
364.5155	-0.000232
364.7308	0.001055
364.9460	-0.000591
365.1612	0.000295
365.3765	0.000654
365.5918	-0.000190
365.8071	-0.000127
366.0224	0.000506
366.2377	-0.000528
366.4530	-0.000021
366.6684	-0.000190
366.8837	0.000169
367.0991	0.001350
367.3145	0.000992
367.5299	0.000886
367.7453	-0.000232
367.9607	-0.000443
368.1761	0.000739
368.3916	0.000717
368.6070	0.000591
368.8225	0.000295
369.0380	0.002806
369.2535	0.000865
369.4690	0.000633
369.6845	-0.000760
369.9001	0.001266
370.1156	0.000907
370.3312	0.001477
370.5468	0.000295
370.7624	0.001224
370.9780	-0.000380
371.1936	0.000485
371.4092	-0.000401
371.6249	0.001561
371.8405	-0.000696
372.0562	0.000760
372.2719	-0.000148
372.4876	0.000654
372.7033	0.002110
372.9190	0.000717
373.1348	0.000823
373.3505	0.000971
373.5663	0.000464
373.7820	-0.000633
373.9978	0.000802
374.2136	0.000274
374.4294	0.000106
374.6453	-0.000253
374.8611	0.000190
375.0770	0.001730
375.2928	-0.000591
375.5087	0.000506
375.7246	0.000612
375.9405	0.001076
376.1564	0.000802
376.3724	0.000781
376.5883	0.000802
376.8043	0.001477
377.0203	0.001372
377.2362	0.000696
377.4522	-0.000591
377.6682	0.000359
377.8843	-0.000084
378.1003	0.001139
378.3164	-0.000591
378.5324	0.001435
378.7485	0.001435
378.9646	-0.000971
379.1807	0.000169
379.3968	0.000907
379.6129	-0.000992
379.8291	0.000971
380.0452	0.001224
380.2614	0.001266
380.4776	0.001540
380.6938	0.001983
380.9100	0.001983
381.1262	0.000675
381.3424	-0.000950
381.5587	-0.000443
381.7749	0.001393
381.9912	-0.000675
382.2075	0.000633
382.4238	0.001498
382.6401	0.000359
382.8564	0.001751
383.0728	0.000380
383.2891	0.000506
383.5055	0.000464
383.7219	0.001287
383.9382	0.001372
384.1546	0.001709
384.3711	0.001224
384.5875	0.002173
384.8039	0.000549
385.0204	0.001329
385.2368	0.001287
385.4533	0.001182
385.6698	0.001393
385.8863	0.000211
386.1028	-0.000127
386.3194	0.002195
386.5359	0.000127
386.7525	0.002448
386.9690	0.001498
387.1856	0.002026
387.4022	0.002047
387.6188	0.002152
387.8355	0.003271
388.0521	0.002638
388.2687	0.003039
388.4854	0.003081
388.7021	0.001203
388.9188	0.003545
389.1355	0.002110
389.3522	0.003017
389.5689	0.002806
389.7856	0.003840
390.0024	0.003777
390.2192	0.003271
390.4359	0.004579
390.6527	0.005296
390.8695	0.004790
391.0863	0.005887
391.3032	0.004938
391.5200	0.006225
391.7369	0.005423
391.9537	0.007702
392.1706	0.006373
392.3875	0.005676
392.6044	0.008293
392.8213	0.007048
393.0383	0.008040
393.2552	0.009643
393.4722	0.008673
393.6891	0.008947
393.9061	0.007027
394.1231	0.008715
394.3401	0.009116
394.5572	0.007449
394.7742	0.010171
394.9912	0.009749
395.2083	0.011057
395.4254	0.009242
395.6425	0.010973
395.8596	0.010656
396.0767	0.011627
396.2938	0.011838
396.5109	0.012429
396.7281	0.013399
396.9453	0.013716
397.1624	0.013019
397.3796	0.013420
397.5968	0.015298
397.8140	0.016775
398.0313	0.015973
398.2485	0.017303
398.4658	0.018885
398.6830	0.018949
398.9003	0.017788
399.1176	0.017155
399.3349	0.019582
399.5522	0.019476
399.7696	0.018590
399.9869	0.018611
400.2043	0.017662
400.4216	0.018843
400.6390	0.020405
400.8564	0.018674
401.0738	0.018463
401.2912	0.020890
401.5087	0.020257
401.7261	0.020426
401.9436	0.019856
402.1610	0.021270
402.3785	0.021101
402.5960	0.020996
402.8135	0.022304
403.0310	0.022810
403.2486	0.020278
403.4661	0.021185
403.6837	0.024055
403.9013	0.022515
404.1189	0.024034
404.3365	0.022958
404.5541	0.027073
404.7717	0.023781
404.9893	0.025638
405.2070	0.026545
405.4246	0.026461
405.6423	0.026250
405.8600	0.026841
406.0777	0.025110
406.2954	0.026229
406.5131	0.026186
406.7309	0.024773
406.9486	0.024794
407.1664	0.023528
407.3842	0.025469
407.6020	0.025617
407.8198	0.025617
408.0376	0.024625
408.2554	0.025849
408.4733	0.027874
408.6911	0.027305
408.9090	0.027157
409.1269	0.026925
409.3448	0.026271
409.5627	0.028107
409.7806	0.028001
409.9985	0.028360
410.2165	0.027790
410.4344	0.027347
410.6524	0.027980
410.8704	0.027241
411.0884	0.028064
411.3064	0.027706
411.5244	0.026735
411.7424	0.028381
411.9605	0.028676
412.1785	0.027368
412.3966	0.027347
412.6147	0.030386
412.8328	0.029162
413.0509	0.029204
413.2690	0.031377
413.4871	0.032411
413.7053	0.031799
413.9234	0.029837
414.1416	0.030702
414.3598	0.029774
414.5780	0.029837
414.7962	0.028655
415.0144	0.028275
415.2326	0.029267
415.4509	0.028740
415.6692	0.030069
415.8874	0.028571
416.1057	0.029119
416.3240	0.030997
416.5423	0.029752
416.7606	0.029394
416.9790	0.030259
417.1973	0.029373
417.4157	0.029014
417.6341	0.031314
417.8524	0.029605
418.0708	0.030006
418.2893	0.031525
418.5077	0.030153
418.7261	0.029879
418.9446	0.031820
419.1630	0.031504
419.3815	0.032601
419.6000	0.030153
419.8185	0.032348
420.0370	0.030006
420.2555	0.030955
420.4741	0.031124
420.6926	0.035091
420.9112	0.032770
421.1298	0.033677
421.3483	0.031926
421.5669	0.036484
421.7856	0.038151
422.0042	0.036526
422.2228	0.036547
422.4415	0.034184
422.6601	0.033614
422.8788	0.034458
423.0975	0.035302
423.3162	0.036062
423.5349	0.036800
423.7536	0.034120
423.9724	0.035197
424.1911	0.033656
424.4099	0.032559
424.6287	0.033213
424.8475	0.034036
425.0663	0.033804
425.2851	0.032622
425.5039	0.030533
425.7228	0.030597
425.9416	0.029858
426.1605	0.029752
426.3793	0.030048
426.5982	0.031040
426.8171	0.030744
427.0361	0.030280
427.2550	0.031799
427.4739	0.034521
427.6929	0.031504
427.9118	0.031863
428.1308	0.031525
428.3498	0.030153
428.5688	0.031673
428.7878	0.032200
429.0068	0.032137
429.2259	0.032475
429.4449	0.033572
429.6640	0.035745
429.8831	0.036589
