# Wavelength (nm)	Intensity (a.u.)
197.7802	0.000158
197.9842	0.000601
198.1882	0.000685
198.3922	-0.000475
198.5963	0.002204
198.8003	0.000221
199.0044	0.001023
199.2085	0.000327
199.4126	0.000685
199.6168	0.000453
199.8209	-0.001128
200.0251	-0.000981
200.2292	-0.000306
200.4334	0.000685
200.6376	0.001107
200.8418	0.000074
201.0461	-0.000074
201.2503	0.000496
201.4546	0.000327
201.6589	-0.000917
201.8631	0.000285
202.0674	-0.000475
202.2718	0.000432
202.4761	-0.000285
202.6805	0.000981
202.8848	-0.000728
203.0892	-0.000475
203.2936	-0.000011
203.4980	0.001023
203.7024	-0.000685
203.9069	0.000875
204.1113	-0.000011
204.3158	0.001044
204.5203	-0.001044
204.7248	-0.000601
204.9293	0.001613
205.1338	0.001149
205.3384	0.000917
205.5430	0.000707
205.7475	-0.000116
205.9521	0.001255
206.1567	-0.000369
206.3614	-0.000981
206.5660	0.000032
206.7706	0.000728
206.9753	-0.000685
207.1800	0.000221
207.3847	0.000770
207.5894	0.001761
207.7941	0.000791
207.9989	0.000791
208.2036	0.000369
208.4084	-0.001234
208.6132	0.000032
208.8180	0.000685
209.0228	-0.000221
209.2276	0.000200
209.4325	0.000475
209.6373	0.002647
209.8422	0.001044
210.0471	0.000200
210.2520	-0.000538
210.4569	0.000601
210.6618	-0.000011
210.8668	0.000854
211.0718	-0.000791
211.2767	0.001888
211.4817	-0.000411
211.6867	-0.001023
211.8918	0.000221
212.0968	0.001487
212.3018	0.000475
212.5069	-0.000074
212.7120	-0.000981
212.9171	0.001824
213.1222	-0.000348
213.3273	0.000200
213.5325	0.000601
213.7376	0.000538
213.9428	0.000538
214.1480	-0.000580
214.3532	0.000095
214.5584	0.000200
214.7636	-0.000137
214.9689	0.001002
215.1741	0.001128
215.3794	0.000285
215.5847	0.000116
215.7900	-0.000664
215.9953	0.000453
216.2007	0.001803
216.4060	0.000875
216.6114	0.000707
216.8168	0.000306
217.0222	0.001192
217.2276	0.000812
217.4330	0.000960
217.6384	0.000770
217.8439	-0.000074
218.0494	0.000243
218.2548	-0.000833
218.4603	0.001086
218.6659	0.001171
218.8714	0.000411
219.0769	-0.000432
219.2825	0.000411
219.4881	-0.001192
219.6936	-0.000622
219.8992	-0.000095
220.1049	-0.000896
220.3105	0.000348
220.5161	0.000306
220.7218	0.000453
220.9275	-0.000137
221.1332	0.000559
221.3389	-0.000917
221.5446	0.001803
221.7503	0.000158
221.9561	0.000179
222.1618	0.000306
222.3676	0.000200
222.5734	0.000981
222.7792	-0.000179
222.9850	0.001930
223.1909	-0.000243
223.3967	0.000517
223.6026	-0.000411
223.8085	-0.000601
224.0144	-0.000285
224.2203	0.000074
224.4262	0.000728
224.6322	0.001613
224.8381	-0.000559
225.0441	-0.000833
225.2501	0.001635
225.4561	0.000685
225.6621	0.000643
225.8681	-0.000517
226.0742	0.000622
226.2802	-0.000243
226.4863	0.000179
226.6924	0.000390
226.8985	0.000559
227.1046	0.001234
227.3107	0.002120
227.5169	-0.000032
227.7230	0.001297
227.9292	-0.001403
228.1354	0.001107
228.3416	0.000854
228.5478	0.001213
228.7541	0.002288
228.9603	0.001930
229.1666	-0.000643
229.3729	0.000728
229.5791	0.000369
229.7855	0.001128
229.9918	0.000243
230.1981	-0.000116
230.4045	0.000770
230.6108	-0.001065
230.8172	-0.000496
231.0236	0.000981
231.2300	-0.000664
231.4364	0.001234
231.6429	0.001445
231.8493	0.000432
232.0558	0.000812
232.2623	0.001023
232.4688	0.001128
232.6753	0.000411
232.8818	0.001107
233.0884	-0.001297
233.2949	0.000369
233.5015	0.001002
233.7081	0.001466
233.9147	0.001529
234.1213	0.000812
234.3279	0.001255
234.5346	0.001002
234.7413	0.000411
234.9479	-0.000116
235.1546	-0.000264
235.3613	0.000306
235.5680	0.001023
235.7748	0.001128
235.9815	0.001171
236.1883	-0.000348
236.3951	0.000032
236.6018	-0.000432
236.8087	0.000243
237.0155	0.002288
237.2223	0.000643
237.4292	-0.000158
237.6360	-0.000221
237.8429	0.000538
238.0498	0.000095
238.2567	0.000137
238.4636	0.001508
238.6706	0.001255
238.8775	0.001002
239.0845	0.000369
239.2915	0.001909
239.4985	0.000601
239.7055	0.000095
239.9125	0.000791
240.1195	-0.000053
240.3266	0.001171
240.5337	-0.000137
240.7407	-0.000580
240.9478	-0.000475
241.1549	0.000580
241.3621	0.000580
241.5692	-0.000306
241.7764	0.000896
241.9835	-0.000538
242.1907	0.001086
242.3979	-0.000243
242.6051	0.000960
242.8124	-0.000559
243.0196	0.001234
243.2269	0.000243
243.4341	0.000095
243.6414	0.000432
243.8487	0.000559
244.0560	-0.001381
244.2634	0.000453
244.4707	-0.000011
244.6781	0.000622
244.8854	0.001213
245.0928	-0.000791
245.3002	0.000601
245.5076	0.001276
245.7151	-0.000390
245.9225	-0.001171
246.1300	0.000221
246.3375	0.000517
246.5449	0.000685
246.7524	0.000601
246.9600	-0.000917
247.1675	0.001656
247.3750	0.000854
247.5826	0.001276
247.7902	-0.000032
247.9978	-0.000538
248.2054	-0.000095
248.4130	0.000116
248.6206	0.000390
248.8283	0.001424
249.0359	0.000812
249.2436	-0.000158
249.4513	0.000348
249.6590	0.000601
249.8667	-0.000728
250.0745	0.001360
250.2822	-0.001255
250.4900	0.001297
250.6978	-0.000601
250.9056	0.001171
251.1134	0.001023
251.3212	-0.000074
251.5290	-0.000327
251.7369	-0.000032
251.9447	0.000559
252.1526	0.001171
252.3605	0.000221
252.5684	0.000200
252.7763	0.000622
252.9843	0.000074
253.1922	-0.000327
253.4002	-0.000411
253.6082	0.000390
253.8162	0.000264
254.0242	-0.000095
254.2322	-0.000812
254.4402	-0.001403
254.6483	-0.000243
254.8564	0.000200
255.0644	0.002689
255.2725	0.000116
255.4806	0.000917
255.6888	0.002478
255.8969	0.001698
256.1051	0.000116
256.3132	0.000580
256.5214	-0.000348
256.7296	0.001529
256.9378	0.000011
257.1460	0.001192
257.3543	0.000285
257.5625	-0.000622
257.7708	0.000369
257.9791	0.000728
258.1874	0.000285
258.3957	0.000960
258.6040	-0.000179
258.8124	0.000369
259.0207	-0.000475
259.2291	0.001128
259.4375	-0.001065
259.6459	0.000685
259.8543	0.000116
260.0627	0.000517
260.2711	-0.000179
260.4796	0.001276
260.6881	0.000833
260.8965	0.000728
261.1050	0.001445
261.3135	0.000179
261.5221	-0.000475
261.7306	0.001656
261.9392	0.000179
262.1477	0.001128
262.3563	-0.000032
262.5649	0.000770
262.7735	-0.000390
262.9822	0.000496
263.1908	0.000749
263.3995	0.001255
263.6081	-0.000200
263.8168	0.000095
264.0255	0.000453
264.2342	0.000622
264.4429	0.000453
264.6517	-0.000116
264.8604	0.000875
265.0692	0.001930
265.2780	-0.000285
265.4868	0.000833
265.6956	-0.000032
265.9044	0.000559
266.1133	0.001192
266.3221	0.000306
266.5310	0.001107
266.7399	0.000179
266.9488	0.000243
267.1577	-0.000243
267.3666	0.000833
267.5755	0.000622
267.7845	-0.000896
267.9935	-0.000664
268.2024	-0.000137
268.4114	0.000432
268.6205	-0.000749
268.8295	0.001234
269.0385	0.000327
269.2476	0.002204
269.4566	0.000960
269.6657	0.001508
269.8748	0.001086
270.0839	-0.000179
270.2931	0.000622
270.5022	0.000643
270.7114	0.000559
270.9205	0.001339
271.1297	-0.000517
271.3389	0.000622
271.5481	-0.000285
271.7573	0.000348
271.9666	0.000538
272.1758	0.000770
272.3851	-0.000369
272.5944	0.000095
272.8037	-0.000348
273.0130	0.000981
273.2223	-0.000158
273.4316	-0.000116
273.6410	0.000432
273.8504	0.000685
274.0597	-0.000137
274.2691	-0.000812
274.4785	0.000369
274.6880	0.000601
274.8974	0.000475
275.1069	0.000538
275.3163	0.000264
275.5258	0.000369
275.7353	-0.000221
275.9448	-0.001171
276.1543	0.001086
276.3639	0.001803
276.5734	0.000728
276.7830	0.000179
276.9926	0.000643
277.2022	0.001466
277.4118	0.000074
277.6214	0.000559
277.8310	0.000475
278.0407	0.000475
278.2503	0.000601
278.4600	-0.000812
278.6697	0.001023
278.8794	0.001613
279.0891	0.000348
279.2989	0.000685
279.5086	-0.000707
279.7184	0.000264
279.9281	0.001128
280.1379	-0.000390
280.3477	-0.000580
280.5576	-0.000390
280.7674	0.000453
280.9772	0.000875
281.1871	0.000453
281.3970	0.000559
281.6069	-0.001128
281.8168	0.000179
282.0267	0.001571
282.2366	0.001360
282.4466	0.000264
282.6565	-0.000348
282.8665	-0.000749
283.0765	0.000348
283.2865	0.000179
283.4965	0.000264
283.7065	0.000432
283.9166	-0.000622
284.1266	-0.000432
284.3367	0.001276
284.5468	0.000137
284.7569	-0.000074
284.9670	0.000960
285.1771	0.000939
285.3873	-0.000580
285.5974	0.000158
285.8076	0.000285
286.0178	0.002331
286.2280	0.001635
286.4382	0.001107
286.6484	-0.000601
286.8587	0.002288
287.0689	-0.000432
287.2792	-0.000264
287.4895	0.000939
287.6998	0.000327
287.9101	0.000475
288.1204	0.000264
288.3308	0.000032
288.5411	-0.000158
288.7515	-0.000348
288.9619	0.000095
289.1723	0.000896
289.3827	0.000179
289.5931	0.000243
289.8035	0.001128
290.0140	0.000095
290.2245	-0.000854
290.4349	0.001297
290.6454	0.000749
290.8559	-0.000580
291.0665	0.001107
291.2770	0.000791
291.4875	0.000981
291.6981	0.000179
291.9087	0.001993
292.1193	0.000221
292.3299	0.000285
292.5405	0.000095
292.7511	-0.000981
292.9618	-0.000200
293.1724	0.000517
293.3831	0.000200
293.5938	0.000200
293.8045	0.000200
294.0152	0.001044
294.2260	0.000496
294.4367	0.000728
294.6475	0.000601
294.8582	-0.001023
295.0690	-0.000158
295.2798	0.000791
295.4906	-0.000200
295.7015	-0.000917
295.9123	0.000158
296.1232	0.002331
296.3340	-0.000179
296.5449	-0.000580
296.7558	0.000179
296.9667	0.000749
297.1777	-0.000432
297.3886	0.000243
297.5995	0.000664
297.8105	-0.000896
298.0215	0.001107
298.2325	0.001381
298.4435	-0.000411
298.6545	0.000285
298.8656	-0.000559
299.0766	0.000074
299.2877	0.000158
299.4988	0.000496
299.7099	0.000074
299.9210	0.000538
300.1321	0.000432
300.3432	0.000939
300.5544	-0.000074
300.7655	0.001192
300.9767	0.000622
301.1879	-0.000032
301.3991	-0.000981
301.6103	0.001107
301.8215	0.000285
302.0328	-0.000306
302.2441	-0.000327
302.4553	-0.000453
302.6666	0.000749
302.8779	0.000896
303.0892	0.000622
303.3006	0.000432
303.5119	-0.000074
303.7233	0.000770
303.9346	0.000137
304.1460	0.001740
304.3574	0.000475
304.5688	0.001445
304.7803	-0.000685
304.9917	-0.000137
305.2031	0.000243
305.4146	-0.000411
305.6261	-0.000875
305.8376	-0.000390
306.0491	0.000264
306.2606	0.000960
306.4722	0.000306
306.6837	0.001360
306.8953	0.000833
307.1069	0.000559
307.3184	-0.000011
307.5301	-0.000285
307.7417	0.000390
307.9533	0.000390
308.1650	-0.000179
308.3766	-0.000791
308.5883	-0.000580
308.8000	0.001234
309.0117	-0.000685
309.2234	0.001255
309.4351	0.000517
309.6469	0.000939
309.8586	-0.000960
310.0704	0.000559
310.2822	-0.000011
310.4940	-0.000622
310.7058	0.001487
310.9176	-0.000074
311.1295	-0.000411
311.3413	0.000939
311.5532	0.001234
311.7651	0.000517
311.9770	0.001529
312.1889	0.000896
312.4008	0.002457
312.6127	0.001930
312.8247	0.000432
313.0366	0.001149
313.2486	0.000285
313.4606	0.000559
313.6726	-0.001592
313.8846	0.000981
314.0967	0.001044
314.3087	0.002014
314.5208	0.000348
314.7328	0.001487
314.9449	-0.001276
315.1570	0.001403
315.3692	0.001002
315.5813	0.000285
315.7934	-0.000116
316.0056	-0.000032
316.2177	-0.000285
316.4299	-0.001255
316.6421	-0.000032
316.8543	0.000411
317.0666	-0.000348
317.2788	-0.000243
317.4911	0.000243
317.7033	0.000685
317.9156	0.002014
318.1279	-0.000053
318.3402	0.000622
318.5525	0.001360
318.7649	0.001508
318.9772	0.000939
319.1896	-0.000116
319.4019	0.000981
319.6143	-0.000137
319.8267	0.001171
320.0392	0.000580
320.2516	0.000854
320.4640	0.000601
320.6765	-0.000348
320.8890	0.000264
321.1014	0.000475
321.3139	0.000707
321.5265	0.000791
321.7390	-0.000116
321.9515	0.001192
322.1641	0.000685
322.3766	0.001213
322.5892	0.000011
322.8018	-0.000411
323.0144	-0.000369
323.2270	0.001381
323.4397	0.001149
323.6523	-0.000243
323.8650	0.001318
324.0777	0.000517
324.2904	0.001234
324.5031	0.000812
324.7158	0.000517
324.9285	0.000517
325.1412	0.000875
325.3540	0.000243
325.5668	0.000791
325.7796	0.001023
325.9924	0.000601
326.2052	0.000432
326.4180	0.001466
326.6308	0.002942
326.8437	0.001845
327.0566	0.000116
327.2694	0.001023
327.4823	0.000981
327.6952	0.000200
327.9082	-0.000601
328.1211	-0.000285
328.3340	0.001740
328.5470	-0.001107
328.7600	0.001803
328.9730	-0.000749
329.1860	0.001424
329.3990	0.000770
329.6120	0.000179
329.8251	-0.000095
330.0381	0.000643
330.2512	0.001107
330.4643	0.000517
330.6774	-0.000643
330.8905	0.000559
331.1036	0.000580
331.3167	0.000011
331.5299	-0.000200
331.7431	0.000517
331.9562	0.000517
332.1694	0.001487
332.3826	0.000285
332.5959	-0.000053
332.8091	-0.000179
333.0223	0.000875
333.2356	-0.000285
333.4489	0.000432
333.6622	0.000411
333.8755	0.001192
334.0888	0.000833
334.3021	-0.000306
334.5154	0.000369
334.7288	0.000453
334.9422	0.000369
335.1555	0.000728
335.3689	0.000601
335.5823	0.000390
335.7958	0.001276
336.0092	0.001297
336.2227	-0.001065
336.4361	0.000369
336.6496	0.000707
336.8631	0.000158
337.0766	0.000728
337.2901	0.000538
337.5036	0.001023
337.7172	0.000116
337.9307	-0.000496
338.1443	-0.000264
338.3579	0.000622
338.5715	0.000517
338.7851	-0.000243
338.9987	0.001339
339.2124	-0.000032
339.4260	0.001065
339.6397	0.000390
339.8533	0.000264
340.0670	0.000791
340.2807	0.000812
340.4945	0.000011
340.7082	0.000960
340.9219	0.000348
341.1357	0.000158
341.3495	-0.001656
341.5633	0.000475
341.7771	0.000601
341.9909	0.001192
342.2047	-0.001360
342.4185	0.000791
342.6324	0.000643
342.8463	0.001297
343.0601	0.000369
343.2740	0.000601
343.4879	0.000369
343.7019	-0.001128
343.9158	0.000243
344.1297	0.000664
344.3437	0.000981
344.5577	0.000011
344.7717	0.000559
344.9857	-0.000158
345.1997	0.000053
345.4137	-0.000390
345.6277	0.001698
345.8418	0.000348
346.0559	-0.001234
346.2699	0.000032
346.4840	-0.000137
346.6981	0.001677
346.9123	-0.000348
347.1264	-0.000053
347.3406	-0.000664
347.5547	0.000538
347.7689	-0.000517
347.9831	0.002499
348.1973	-0.000390
348.4115	-0.000728
348.6257	-0.000517
348.8400	0.000643
349.0542	0.001761
349.2685	0.000116
349.4828	-0.000264
349.6971	0.002056
349.9114	-0.000643
350.1257	0.000264
350.3400	-0.000200
350.5544	0.000960
350.7687	-0.000453
350.9831	0.001845
351.1975	0.000453
351.4119	0.001824
351.6263	0.000601
351.8407	0.001107
352.0552	0.000179
352.2696	0.000728
352.4841	0.001592
352.6986	-0.000179
352.9131	0.000622
353.1276	0.001255
353.3421	0.000917
353.5566	0.001065
353.7712	0.001487
353.9858	0.000601
354.2003	0.000559
354.4149	0.001592
354.6295	0.000390
354.8441	0.000411
355.0588	0.000601
355.2734	0.000496
355.4881	0.000306
355.7027	0.001065
355.9174	0.000622
356.1321	0.001761
356.3468	0.001867
356.5615	0.000896
356.7763	-0.000011
356.9910	0.001381
357.2058	0.001255
357.4206	0.002099
357.6353	-0.000664
357.8501	0.000538
358.0650	0.000896
358.2798	0.000580
358.4946	0.000200
358.7095	0.000939
358.9243	0.001128
359.1392	0.000622
359.3541	-0.000285
359.5690	0.001149
359.7839	0.001107
359.9989	0.000200
360.2138	-0.000011
360.4288	0.000011
360.6438	0.000580
360.8587	0.000707
361.0737	0.000875
361.2888	0.001149
361.5038	0.000411
361.7188	0.000939
361.9339	0.000896
362.1489	0.001107
362.3640	-0.000749
362.5791	0.001065
362.7942	-0.000032
363.0093	0.001128
363.2245	-0.000411
363.4396	0.001571
363.6548	0.001318
363.8699	0.000580
364.0851	0.000685
364.3003	0.001360
364.5155	0.000833
364.7308	0.001128
364.9460	-0.000707
365.1612	0.001023
365.3765	0.000411
365.5918	0.000664
365.8071	0.000664
366.0224	0.001993
366.2377	0.001656
366.4530	0.000833
366.6684	-0.000032
366.8837	0.001803
367.0991	0.001635
367.3145	0.000095
367.5299	0.000200
367.7453	0.000939
367.9607	0.001192
368.1761	0.000053
368.3916	-0.000538
368.6070	0.001318
368.8225	-0.000369
369.0380	0.000960
369.2535	0.000981
369.4690	0.000538
369.6845	-0.000137
369.9001	0.000917
370.1156	-0.000200
370.3312	-0.001360
370.5468	0.000749
370.7624	0.002056
370.9780	-0.001487
371.1936	-0.001023
371.4092	-0.000116
371.6249	-0.000179
371.8405	0.000496
372.0562	0.000622
372.2719	-0.000369
372.4876	0.000917
372.7033	0.000517
372.9190	0.000875
373.1348	0.000032
373.3505	0.000685
373.5663	0.000538
373.7820	0.000685
373.9978	0.000095
374.2136	0.001888
374.4294	-0.000285
374.6453	-0.000011
374.8611	-0.000158
375.0770	0.001044
375.2928	-0.000179
375.5087	0.000011
375.7246	0.002541
375.9405	-0.000032
376.1564	0.000812
376.3724	-0.000095
376.5883	0.000032
376.8043	-0.000517
377.0203	-0.000348
377.2362	0.001698
377.4522	0.000116
377.6682	0.001951
377.8843	0.001381
378.1003	0.000939
378.3164	0.001023
378.5324	-0.000137
378.7485	-0.000053
378.9646	0.000601
379.1807	-0.000960
379.3968	0.000432
379.6129	-0.000538
379.8291	0.000960
380.0452	0.000158
380.2614	0.001255
380.4776	0.001487
380.6938	0.002309
380.9100	0.000095
381.1262	-0.000369
381.3424	-0.000221
381.5587	-0.000074
381.7749	0.001213
381.9912	0.001845
382.2075	0.000432
382.4238	0.001677
382.6401	-0.000327
382.8564	0.000622
383.0728	0.000664
383.2891	0.000833
383.5055	0.000896
383.7219	-0.000390
383.9382	0.000221
384.1546	-0.000496
384.3711	-0.000053
384.5875	0.000601
384.8039	-0.000411
385.0204	0.000158
385.2368	-0.000306
385.4533	0.000812
385.6698	0.000749
385.8863	0.002099
386.1028	-0.000200
386.3194	-0.000095
386.5359	0.000411
386.7525	0.001740
386.9690	0.001803
387.1856	0.001381
387.4022	0.001550
387.6188	0.001803
387.8355	0.001782
388.0521	0.001803
388.2687	0.001888
388.4854	0.002478
388.7021	0.003237
388.9188	0.002689
389.1355	0.000369
389.3522	0.002541
389.5689	0.002499
389.7856	0.002963
390.0024	0.003469
390.2192	0.002120
390.4359	0.003027
390.6527	0.003912
390.8695	0.002689
391.0863	0.003132
391.3032	0.004039
391.5200	0.003849
391.7369	0.002626
391.9537	0.005157
392.1706	0.005811
392.3875	0.003891
392.6044	0.003786
392.8213	0.006823
393.0383	0.004292
393.2552	0.005916
393.4722	0.004904
393.6891	0.007013
393.9061	0.006043
394.1231	0.005726
394.3401	0.006232
394.5572	0.008110
394.7742	0.006232
394.9912	0.005832
395.2083	0.007224
395.4254	0.006549
395.6425	0.007856
395.8596	0.005347
396.0767	0.008215
396.2938	0.007414
396.5109	0.008489
396.7281	0.008700
396.9453	0.009438
397.1624	0.009227
397.3796	0.009396
397.5968	0.009248
397.8140	0.010915
398.0313	0.009417
398.2485	0.012454
398.4658	0.012686
398.6830	0.011906
398.9003	0.013214
399.1176	0.013424
399.3349	0.013214
399.5522	0.012686
399.7696	0.013678
399.9869	0.012454
400.2043	0.013530
400.4216	0.012518
400.6390	0.011885
400.8564	0.013699
401.0738	0.015217
401.2912	0.014395
401.5087	0.012918
401.7261	0.013572
401.9436	0.015660
402.1610	0.013108
402.3785	0.014120
402.5960	0.016061
402.8135	0.014690
403.0310	0.015618
403.2486	0.014774
403.4661	0.013846
403.6837	0.015871
403.9013	0.016208
404.1189	0.016398
404.3365	0.017094
404.5541	0.015259
404.7717	0.017031
404.9893	0.018318
405.2070	0.017579
405.4246	0.016968
405.6423	0.017221
405.8600	0.018381
406.0777	0.019815
406.2954	0.018128
406.5131	0.018022
406.7309	0.017284
406.9486	0.017305
407.1664	0.017938
407.3842	0.015576
407.6020	0.018170
407.8198	0.017094
408.0376	0.017326
408.2554	0.016525
408.4733	0.019203
408.6911	0.019077
408.9090	0.019541
409.1269	0.018929
409.3448	0.017537
409.5627	0.019014
409.7806	0.020996
409.9985	0.019541
410.2165	0.019330
410.4344	0.020891
410.6524	0.020722
410.8704	0.019499
411.0884	0.020047
411.3064	0.018613
411.5244	0.021418
411.7424	0.019224
411.9605	0.018550
412.1785	0.020321
412.3966	0.020110
412.6147	0.022051
412.8328	0.021587
413.0509	0.019963
413.2690	0.021629
413.4871	0.022008
413.7053	0.020047
413.9234	0.020089
414.1416	0.022705
414.3598	0.020427
414.5780	0.022620
414.7962	0.019731
415.0144	0.021882
415.2326	0.021439
415.4509	0.020448
415.6692	0.023105
415.8874	0.023886
416.1057	0.020743
416.3240	0.021692
416.5423	0.020912
416.7606	0.021903
416.9790	0.020490
417.1973	0.022388
417.4157	0.022346
417.6341	0.022789
417.8524	0.021798
418.0708	0.023084
418.2893	0.019794
418.5077	0.021798
418.7261	0.021713
418.9446	0.020743
419.1630	0.022451
419.3815	0.022156
419.6000	0.023211
419.8185	0.022747
420.0370	0.024877
420.2555	0.021861
420.4741	0.023801
420.6926	0.022241
420.9112	0.025826
421.1298	0.025995
421.3483	0.024033
421.5669	0.027007
421.7856	0.027682
422.0042	0.030550
422.2228	0.026754
422.4415	0.028715
422.6601	0.027724
422.8788	0.027281
423.0975	0.025130
423.3162	0.026670
423.5349	0.026859
423.7536	0.027218
423.9724	0.025172
424.1911	0.026248
424.4099	0.025742
424.6287	0.024518
424.8475	0.025489
425.0663	0.026121
425.2851	0.025931
425.5039	0.024687
425.7228	0.025235
425.9416	0.023126
426.1605	0.022620
426.3793	0.023105
426.5982	0.022979
426.8171	0.023527
427.0361	0.022810
427.2550	0.023611
427.4739	0.025404
427.6929	0.024413
427.9118	0.025974
428.1308	0.023211
428.3498	0.024265
428.5688	0.024518
428.7878	0.022747
429.0068	0.023063
429.2259	0.024307
