# Wavelength (nm)	Intensity (a.u.)
197.7802	0.001302
197.9842	0.000986
198.1882	0.000733
198.3922	-0.000448
198.5963	0.000416
198.8003	-0.001545
199.0044	0.000606
199.2085	0.000016
199.4126	-0.000575
199.6168	-0.000596
199.8209	0.001176
200.0251	-0.001270
200.2292	0.000691
200.4334	0.000248
200.6376	0.001197
200.8418	-0.001060
201.0461	0.001049
201.2503	0.000585
201.4546	0.002588
201.6589	-0.000638
201.8631	0.000185
202.0674	0.000543
202.2718	0.001513
202.4761	0.001386
202.6805	0.000691
202.8848	0.000227
203.0892	0.001787
203.2936	0.000248
203.4980	0.000543
203.7024	-0.000258
203.9069	0.000670
204.1113	-0.000300
204.3158	0.000986
204.5203	0.000691
204.7248	0.001239
204.9293	-0.000279
205.1338	-0.000069
205.3384	-0.000385
205.5430	0.000206
205.7475	0.000564
205.9521	0.001618
206.1567	-0.000258
206.3614	0.000648
206.5660	0.001323
206.7706	0.002525
206.9753	0.000712
207.1800	0.001133
207.3847	0.000142
207.5894	-0.001545
207.7941	0.000100
207.9989	0.000754
208.2036	0.002230
208.4084	-0.000300
208.6132	0.001408
208.8180	0.000395
209.0228	0.001344
209.2276	0.001218
209.4325	0.001197
209.6373	-0.000195
209.8422	0.000206
210.0471	-0.000364
210.2520	0.000227
210.4569	0.000332
210.6618	0.000733
210.8668	0.000100
211.0718	0.000163
211.2767	-0.001060
211.4817	-0.000406
211.6867	0.001492
211.8918	0.001386
212.0968	0.000142
212.3018	-0.000258
212.5069	0.001344
212.7120	-0.000132
212.9171	-0.000807
213.1222	0.001344
213.3273	0.000585
213.5325	0.000564
213.7376	0.001344
213.9428	0.001576
214.1480	0.000037
214.3532	-0.000596
214.5584	-0.000364
214.7636	0.000522
214.9689	0.001155
215.1741	-0.000279
215.3794	0.001766
215.5847	0.000648
215.7900	0.000248
215.9953	0.000627
216.2007	0.001155
216.4060	0.000206
216.6114	-0.001060
216.8168	0.000374
217.0222	0.000564
217.2276	0.000290
217.4330	-0.000111
217.6384	0.000459
217.8439	0.001682
218.0494	0.000691
218.2548	0.001218
218.4603	-0.000153
218.6659	0.001555
218.8714	0.000438
219.0769	0.000733
219.2825	0.000037
219.4881	0.001576
219.6936	0.000016
219.8992	0.000248
220.1049	0.000627
220.3105	0.000522
220.5161	-0.000511
220.7218	0.000606
220.9275	0.000522
221.1332	-0.000174
221.3389	0.000079
221.5446	0.000206
221.7503	-0.000511
221.9561	0.004170
222.1618	-0.000237
222.3676	-0.000195
222.5734	-0.000364
222.7792	0.000691
222.9850	-0.000174
223.1909	0.002188
223.3967	0.001682
223.6026	0.001576
223.8085	-0.000069
224.0144	0.000227
224.2203	0.000353
224.4262	0.000501
224.6322	-0.000807
224.8381	0.001260
225.0441	-0.000575
225.2501	0.001829
225.4561	0.000817
225.6621	0.000712
225.8681	0.000480
226.0742	0.001787
226.2802	0.000037
226.4863	0.000395
226.6924	0.000416
226.8985	0.001281
227.1046	0.000248
227.3107	0.000670
227.5169	-0.001144
227.7230	0.001703
227.9292	-0.000680
228.1354	0.000648
228.3416	0.000796
228.5478	0.000269
228.7541	-0.000216
228.9603	0.000206
229.1666	0.001070
229.3729	-0.000069
229.5791	-0.000195
229.7855	0.000121
229.9918	0.000796
230.1981	0.000733
230.4045	-0.000638
230.6108	0.001724
230.8172	0.001871
231.0236	0.001829
231.2300	-0.000343
231.4364	0.002314
231.6429	-0.000090
231.8493	0.000142
232.0558	-0.000090
232.2623	0.000670
232.4688	0.000923
232.6753	0.001492
232.8818	-0.001102
233.0884	0.000986
233.2949	-0.000385
233.5015	0.001133
233.7081	0.000037
233.9147	0.000880
234.1213	0.000016
234.3279	0.001450
234.5346	0.000142
234.7413	0.002019
234.9479	-0.000975
235.1546	0.000185
235.3613	-0.000385
235.5680	0.000901
235.7748	0.001028
235.9815	0.000416
236.1883	-0.000300
236.3951	0.001682
236.6018	0.000079
236.8087	0.000859
237.0155	0.000185
237.2223	0.001808
237.4292	0.001597
237.6360	0.000880
237.8429	0.000227
238.0498	-0.000090
238.2567	-0.000764
238.4636	0.000901
238.6706	0.001176
238.8775	-0.000174
239.0845	-0.000532
239.2915	0.001618
239.4985	0.000121
239.7055	0.000923
239.9125	-0.000005
240.1195	0.000501
240.3266	0.000901
240.5337	0.001408
240.7407	0.000142
240.9478	0.001365
241.1549	0.000269
241.3621	0.000311
241.5692	0.000016
241.7764	0.000585
241.9835	0.000269
242.1907	0.000564
242.3979	0.001133
242.6051	0.000901
242.8124	-0.000912
243.0196	0.001365
243.2269	-0.000448
243.4341	0.001914
243.6414	0.001344
243.8487	0.000353
244.0560	0.000269
244.2634	-0.000469
244.4707	0.000880
244.6781	0.001281
244.8854	0.000923
245.0928	0.001386
245.3002	-0.000300
245.5076	0.000163
245.7151	-0.000005
245.9225	-0.000258
246.1300	0.001260
246.3375	0.000838
246.5449	0.000395
246.7524	0.000459
246.9600	0.000269
247.1675	0.000965
247.3750	0.001239
247.5826	0.000480
247.7902	0.000163
247.9978	-0.000047
248.2054	-0.000785
248.4130	0.001028
248.6206	0.002272
248.8283	0.001176
249.0359	-0.000132
249.2436	0.001176
249.4513	-0.000047
249.6590	-0.000174
249.8667	0.000923
250.0745	0.000627
250.2822	0.001745
250.4900	0.001618
250.6978	-0.000090
250.9056	0.001787
251.1134	0.001640
251.3212	0.000733
251.5290	-0.000828
251.7369	0.000248
251.9447	0.001977
252.1526	-0.000891
252.3605	0.000965
252.5684	0.001218
252.7763	0.000058
252.9843	0.001408
253.1922	0.000796
253.4002	0.001597
253.6082	0.000353
253.8162	0.000944
254.0242	0.000522
254.2322	0.000712
254.4402	0.000923
254.6483	0.001808
254.8564	0.002673
255.0644	0.001408
255.2725	0.000775
255.4806	0.000838
255.6888	-0.000364
255.8969	0.001386
256.1051	0.000648
256.3132	0.000395
256.5214	0.000817
256.7296	0.001703
256.9378	0.000374
257.1460	0.000459
257.3543	0.000227
257.5625	0.000733
257.7708	0.000438
257.9791	0.000374
258.1874	0.000416
258.3957	-0.000111
258.6040	0.000564
258.8124	0.000459
259.0207	0.000817
259.2291	0.001070
259.4375	0.000775
259.6459	0.000838
259.8543	0.001576
260.0627	0.000332
260.2711	-0.000111
260.4796	0.002019
260.6881	0.000142
260.8965	0.000332
261.1050	-0.000469
261.3135	0.000100
261.5221	0.000311
261.7306	0.000965
261.9392	0.001492
262.1477	0.001513
262.3563	0.000142
262.5649	0.001661
262.7735	0.000037
262.9822	-0.000322
263.1908	0.001155
263.3995	-0.000090
263.6081	0.000817
263.8168	0.000374
264.0255	0.001028
264.2342	0.001471
264.4429	-0.000511
264.6517	0.000817
264.8604	0.000627
265.0692	0.001176
265.2780	0.000185
265.4868	0.000733
265.6956	-0.000764
265.9044	0.001513
266.1133	0.000100
266.3221	0.000480
266.5310	0.003200
266.7399	0.001724
266.9488	0.000754
267.1577	0.001914
267.3666	0.001112
267.5755	0.001155
267.7845	0.000142
267.9935	0.000712
268.2024	0.000142
268.4114	0.000944
268.6205	-0.000743
268.8295	-0.000722
269.0385	0.000121
269.2476	0.000880
269.4566	0.000817
269.6657	0.001386
269.8748	-0.000490
270.0839	0.000627
270.2931	0.000859
270.5022	0.000332
270.7114	0.000986
270.9205	0.001176
271.1297	0.000100
271.3389	0.000564
271.5481	-0.000448
271.7573	0.000944
271.9666	-0.001039
272.1758	0.000796
272.3851	0.001007
272.5944	0.002841
272.8037	0.000374
273.0130	0.001028
273.2223	0.001344
273.4316	0.002715
273.6410	0.000374
273.8504	0.000606
274.0597	-0.000174
274.2691	0.000691
274.4785	0.000395
274.6880	0.001133
274.8974	-0.000069
275.1069	0.001808
275.3163	0.000754
275.5258	0.001914
275.7353	0.000923
275.9448	0.001555
276.1543	-0.000849
276.3639	0.000332
276.5734	0.000248
276.7830	0.001281
276.9926	-0.000322
277.2022	0.000733
277.4118	0.000395
277.6214	-0.000490
277.8310	0.000923
278.0407	0.000606
278.2503	0.000100
278.4600	0.000416
278.6697	-0.000047
278.8794	0.000374
279.0891	0.000480
279.2989	-0.000300
279.5086	0.001281
279.7184	0.000564
279.9281	0.000079
280.1379	0.000311
280.3477	0.000838
280.5576	0.000522
280.7674	0.001070
280.9772	0.000142
281.1871	-0.000300
281.3970	0.000395
281.6069	0.000016
281.8168	0.000290
282.0267	0.000733
282.2366	0.001492
282.4466	-0.000870
282.6565	0.001323
282.8665	0.000838
283.0765	0.000712
283.2865	0.000290
283.4965	0.001429
283.7065	0.000627
283.9166	0.001260
284.1266	0.001070
284.3367	0.000944
284.5468	0.001049
284.7569	0.001302
284.9670	0.000564
285.1771	0.001998
285.3873	0.001091
285.5974	0.002483
285.8076	0.000227
286.0178	0.001471
286.2280	0.000923
286.4382	0.000416
286.6484	-0.000153
286.8587	0.001323
287.0689	0.000206
287.2792	0.000817
287.4895	0.000395
287.6998	0.000986
287.9101	-0.000469
288.1204	0.001323
288.3308	0.000416
288.5411	-0.000153
288.7515	0.000838
288.9619	0.000986
289.1723	0.000438
289.3827	0.000923
289.5931	0.000901
289.8035	0.002082
290.0140	0.000395
290.2245	-0.001355
290.4349	0.001703
290.6454	0.001703
290.8559	0.000480
291.0665	0.001155
291.2770	-0.000659
291.4875	0.001935
291.6981	-0.000047
291.9087	0.001850
292.1193	-0.000427
292.3299	0.000374
292.5405	0.000353
292.7511	0.001239
292.9618	-0.000385
293.1724	0.000754
293.3831	-0.000195
293.5938	0.001007
293.8045	0.002209
294.0152	0.000395
294.2260	-0.000216
294.4367	0.000564
294.6475	0.000564
294.8582	0.001155
295.0690	0.000817
295.2798	-0.000849
295.4906	0.000248
295.7015	0.001576
295.9123	0.000817
296.1232	0.001661
296.3340	0.000332
296.5449	0.000522
296.7558	-0.001081
296.9667	-0.000385
297.1777	0.001155
297.3886	-0.000111
297.5995	-0.000132
297.8105	0.001998
298.0215	0.001640
298.2325	0.001197
298.4435	0.001597
298.6545	0.001070
298.8656	-0.000005
299.0766	0.001618
299.2877	0.000459
299.4988	0.001534
299.7099	-0.000026
299.9210	0.000627
300.1321	0.000585
300.3432	0.000901
300.5544	-0.000258
300.7655	0.000712
300.9767	0.000374
301.1879	0.000880
301.3991	0.000585
301.6103	0.001302
301.8215	0.000227
302.0328	0.000754
302.2441	0.000648
302.4553	0.001049
302.6666	-0.000343
302.8779	0.000923
303.0892	0.000880
303.3006	0.000817
303.5119	0.001661
303.7233	0.002209
303.9346	-0.000026
304.1460	0.000712
304.3574	0.000416
304.5688	0.001682
304.7803	0.001007
304.9917	0.000459
305.2031	0.000163
305.4146	0.001429
305.6261	0.000796
305.8376	0.000374
306.0491	-0.000322
306.2606	0.000648
306.4722	0.000206
306.6837	0.003116
306.8953	-0.000005
307.1069	0.000859
307.3184	-0.000047
307.5301	0.000775
307.7417	0.000606
307.9533	0.001893
308.1650	0.000374
308.3766	0.000037
308.5883	-0.000047
308.8000	0.001998
309.0117	0.001914
309.2234	0.001492
309.4351	0.000564
309.6469	0.000838
309.8586	-0.000279
310.0704	0.001049
310.2822	0.000923
310.4940	0.002525
310.7058	0.000564
310.9176	0.000754
311.1295	0.000395
311.3413	0.001661
311.5532	-0.000279
311.7651	0.000880
311.9770	0.001239
312.1889	0.000121
312.4008	-0.000638
312.6127	0.000944
312.8247	0.001049
313.0366	0.000206
313.2486	0.001176
313.4606	0.001091
313.6726	0.000227
313.8846	0.000480
314.0967	0.000965
314.3087	0.000670
314.5208	-0.000026
314.7328	0.000374
314.9449	0.000163
315.1570	0.000691
315.3692	0.000838
315.5813	0.000374
315.7934	0.000311
316.0056	0.000290
316.2177	0.000501
316.4299	-0.000258
316.6421	0.000269
316.8543	-0.000069
317.0666	0.000100
317.2788	0.002040
317.4911	0.000754
317.7033	0.000733
317.9156	0.001112
318.1279	0.001618
318.3402	0.001176
318.5525	0.001049
318.7649	-0.000680
318.9772	0.000817
319.1896	0.000163
319.4019	-0.000511
319.6143	-0.000743
319.8267	0.001766
320.0392	0.000522
320.2516	0.002188
320.4640	-0.000195
320.6765	0.000416
320.8890	-0.000385
321.1014	0.002103
321.3139	0.000016
321.5265	0.000733
321.7390	0.000901
321.9515	0.002125
322.1641	-0.000026
322.3766	0.001450
322.5892	-0.000364
322.8018	0.001007
323.0144	-0.000153
323.2270	0.001597
323.4397	-0.000300
323.6523	0.000058
323.8650	0.001450
324.0777	0.000901
324.2904	0.000754
324.5031	0.000564
324.7158	0.001112
324.9285	0.000269
325.1412	0.000227
325.3540	0.000163
325.5668	0.000185
325.7796	0.001365
325.9924	-0.000300
326.2052	0.000480
326.4180	0.000817
326.6308	0.000648
326.8437	0.000142
327.0566	0.000648
327.2694	-0.000005
327.4823	0.002061
327.6952	0.000754
327.9082	0.000480
328.1211	0.000754
328.3340	0.001155
328.5470	0.000501
328.7600	0.002272
328.9730	0.000438
329.1860	0.000121
329.3990	0.001408
329.6120	0.000627
329.8251	0.000290
330.0381	0.000480
330.2512	0.000459
330.4643	0.001724
330.6774	-0.000026
330.8905	0.000100
331.1036	0.001155
331.3167	0.000459
331.5299	0.000648
331.7431	0.001492
331.9562	0.000796
332.1694	0.001766
332.3826	0.000100
332.5959	0.001998
332.8091	0.000121
333.0223	0.000691
333.2356	0.001408
333.4489	0.000522
333.6622	0.000501
333.8755	0.001829
334.0888	0.000248
334.3021	0.000185
334.5154	-0.000364
334.7288	0.000796
334.9422	0.001218
335.1555	0.000712
335.3689	0.000627
335.5823	0.001555
335.7958	0.000986
336.0092	0.000965
336.2227	0.001386
336.4361	0.000986
336.6496	0.000206
336.8631	0.000796
337.0766	0.000121
337.2901	0.003284
337.5036	0.000585
337.7172	0.002588
337.9307	0.000459
338.1443	0.001429
338.3579	0.001028
338.5715	0.000986
338.7851	0.000290
338.9987	0.001302
339.2124	-0.000258
339.4260	0.002335
339.6397	0.000501
339.8533	-0.000026
340.0670	0.000796
340.2807	0.000248
340.4945	0.000901
340.7082	0.000438
340.9219	0.000206
341.1357	0.000311
341.3495	0.000965
341.5633	0.000585
341.7771	0.000670
341.9909	0.000121
342.2047	-0.001017
342.4185	0.001218
342.6324	-0.000532
342.8463	0.000585
343.0601	0.001133
343.2740	0.000100
343.4879	0.001850
343.7019	-0.000322
343.9158	0.000648
344.1297	-0.000385
344.3437	-0.000279
344.5577	0.000100
344.7717	0.000691
344.9857	0.001640
345.1997	0.000206
345.4137	0.000290
345.6277	-0.000111
345.8418	0.001049
346.0559	-0.000490
346.2699	0.001091
346.4840	-0.000090
346.6981	0.000248
346.9123	0.001049
347.1264	0.000416
347.3406	0.000859
347.5547	0.000459
347.7689	0.000332
347.9831	0.000775
348.1973	-0.000195
348.4115	0.000796
348.6257	-0.000364
348.8400	0.000459
349.0542	0.000227
349.2685	0.001682
349.4828	0.000416
349.6971	0.000079
349.9114	0.001155
350.1257	-0.000069
350.3400	0.000142
350.5544	0.001176
350.7687	-0.000090
350.9831	0.000480
351.1975	0.000438
351.4119	0.001091
351.6263	0.000606
351.8407	-0.000300
352.0552	-0.000258
352.2696	0.000522
352.4841	0.000543
352.6986	0.000416
352.9131	0.001534
353.1276	0.000142
353.3421	0.001281
353.5566	-0.000532
353.7712	-0.000216
353.9858	-0.000448
354.2003	0.000016
354.4149	0.001155
354.6295	0.001576
354.8441	0.001408
355.0588	0.001513
355.2734	-0.000279
355.4881	0.000670
355.7027	0.000880
355.9174	-0.000026
356.1321	0.001049
356.3468	0.000691
356.5615	0.001471
356.7763	0.001112
356.9910	0.001091
357.2058	0.001028
357.4206	0.001155
357.6353	-0.001292
357.8501	0.000944
358.0650	-0.000153
358.2798	0.001365
358.4946	0.000923
358.7095	0.000880
358.9243	0.001640
359.1392	0.001703
359.3541	-0.000659
359.5690	0.000691
359.7839	0.000037
359.9989	0.001935
360.2138	0.000037
360.4288	0.000353
360.6438	0.001176
360.8587	0.001386
361.0737	-0.000279
361.2888	0.001450
361.5038	0.000627
361.7188	0.001450
361.9339	0.000185
362.1489	-0.000132
362.3640	0.000395
362.5791	0.000754
362.7942	0.000459
363.0093	0.001260
363.2245	0.001239
363.4396	0.000648
363.6548	0.000311
363.8699	0.000290
364.0851	-0.000617
364.3003	0.000058
364.5155	0.000374
364.7308	0.000374
364.9460	0.001133
365.1612	0.000269
365.3765	0.000227
365.5918	0.001218
365.8071	0.001492
366.0224	0.001724
366.2377	0.000712
366.4530	0.001808
366.6684	0.000290
366.8837	-0.000174
367.0991	-0.000174
367.3145	0.000627
367.5299	0.000670
367.7453	0.000670
367.9607	-0.000785
368.1761	0.002040
368.3916	0.001766
368.6070	0.001682
368.8225	-0.000722
369.0380	-0.000090
369.2535	0.000543
369.4690	-0.000343
369.6845	0.001133
369.9001	-0.000047
370.1156	0.000480
370.3312	0.000058
370.5468	0.000901
370.7624	0.001724
370.9780	-0.000195
371.1936	0.000248
371.4092	0.000269
371.6249	0.000163
371.8405	-0.000322
372.0562	0.000248
372.2719	0.000712
372.4876	0.001028
372.7033	0.000627
372.9190	0.000332
373.1348	0.000543
373.3505	0.000058
373.5663	-0.000975
373.7820	0.001408
373.9978	-0.000596
374.2136	0.000923
374.4294	0.000227
374.6453	0.000733
374.8611	0.000901
375.0770	0.001197
375.2928	0.001197
375.5087	0.001218
375.7246	-0.000554
375.9405	0.000691
376.1564	0.000648
376.3724	0.001513
376.5883	-0.000258
376.8043	0.000501
377.0203	-0.000132
377.2362	-0.000047
377.4522	0.000775
377.6682	0.000923
377.8843	0.000459
378.1003	0.002103
378.3164	0.001197
378.5324	0.001028
378.7485	0.000227
378.9646	0.001260
379.1807	0.001302
379.3968	0.000100
379.6129	-0.000680
379.8291	0.000880
380.0452	0.000543
380.2614	0.000016
380.4776	0.000227
380.6938	-0.000069
380.9100	0.001302
381.1262	0.001218
381.3424	0.000986
381.5587	0.001492
381.7749	0.000353
381.9912	-0.000680
382.2075	-0.000490
382.4238	0.000670
382.6401	0.000142
382.8564	0.000480
383.0728	0.000564
383.2891	0.000522
383.5055	0.000058
383.7219	0.000311
383.9382	0.001070
384.1546	0.000986
384.3711	0.000712
384.5875	0.000438
384.8039	0.001408
385.0204	0.000332
385.2368	0.000923
385.4533	0.000712
385.6698	0.001218
385.8863	0.001450
386.1028	0.000691
386.3194	0.000353
386.5359	0.001344
386.7525	0.001471
386.9690	0.000817
387.1856	0.000859
387.4022	0.001956
387.6188	0.001998
387.8355	0.002567
388.0521	0.001471
388.2687	0.001661
388.4854	0.003137
388.7021	0.002293
388.9188	0.002019
389.1355	0.001808
389.3522	0.003137
389.5689	0.001703
389.7856	0.003601
390.0024	0.002314
390.2192	0.004550
390.4359	0.002314
390.6527	0.003474
390.8695	0.002356
391.0863	0.003833
391.3032	0.003411
391.5200	0.004676
391.7369	0.003516
391.9537	0.005583
392.1706	0.005056
392.3875	0.005456
392.6044	0.007291
392.8213	0.006363
393.0383	0.005203
393.2552	0.006869
393.4722	0.005709
393.6891	0.005857
393.9061	0.005393
394.1231	0.007080
394.3401	0.007523
394.5572	0.007459
394.7742	0.007038
394.9912	0.007164
395.2083	0.009041
395.4254	0.009083
395.6425	0.007734
395.8596	0.008725
396.0767	0.009315
396.2938	0.008809
396.5109	0.009948
396.7281	0.009906
396.9453	0.010686
397.1624	0.011171
397.3796	0.010011
397.5968	0.011593
397.8140	0.009484
398.0313	0.009927
398.2485	0.012837
398.4658	0.013322
398.6830	0.013575
398.9003	0.014207
399.1176	0.011424
399.3349	0.012773
399.5522	0.013448
399.7696	0.013511
399.9869	0.014313
400.2043	0.014587
400.4216	0.013701
400.6390	0.012520
400.8564	0.013322
401.0738	0.014966
401.2912	0.014165
401.5087	0.014650
401.7261	0.014144
401.9436	0.015641
402.1610	0.012921
402.3785	0.015367
402.5960	0.016358
402.8135	0.016717
403.0310	0.016063
403.2486	0.017391
403.4661	0.014734
403.6837	0.017349
403.9013	0.015979
404.1189	0.018172
404.3365	0.017687
404.5541	0.016232
404.7717	0.019437
404.9893	0.018846
405.2070	0.017307
405.4246	0.019184
405.6423	0.020639
405.8600	0.018593
406.0777	0.020175
406.2954	0.018129
406.5131	0.018488
406.7309	0.018045
406.9486	0.017117
407.1664	0.019121
407.3842	0.019184
407.6020	0.018678
407.8198	0.018699
408.0376	0.017370
408.2554	0.019753
408.4733	0.018846
408.6911	0.020386
408.9090	0.019584
409.1269	0.020786
409.3448	0.019922
409.5627	0.020533
409.7806	0.018720
409.9985	0.023043
410.2165	0.021398
410.4344	0.021630
410.6524	0.021208
410.8704	0.021124
411.0884	0.020449
411.3064	0.021546
411.5244	0.020512
411.7424	0.020512
411.9605	0.020196
412.1785	0.021546
412.3966	0.023591
412.6147	0.023443
412.8328	0.020829
413.0509	0.022473
413.2690	0.022473
413.4871	0.022157
413.7053	0.021988
413.9234	0.022157
414.1416	0.019943
414.3598	0.023085
414.5780	0.022494
414.7962	0.020533
415.0144	0.023401
415.2326	0.022916
415.4509	0.021039
415.6692	0.021482
415.8874	0.020027
416.1057	0.020871
416.3240	0.022220
416.5423	0.021609
416.7606	0.022305
416.9790	0.021588
417.1973	0.025341
417.4157	0.023296
417.6341	0.025257
417.8524	0.023486
418.0708	0.022305
418.2893	0.024055
418.5077	0.021925
418.7261	0.024076
418.9446	0.023001
419.1630	0.023591
419.3815	0.025236
419.6000	0.024793
419.8185	0.023739
420.0370	0.023211
420.2555	0.023380
420.4741	0.024498
420.6926	0.025341
420.9112	0.025278
421.1298	0.026628
421.3483	0.027534
421.5669	0.029411
421.7856	0.028061
422.0042	0.028715
422.2228	0.028610
422.4415	0.027724
422.6601	0.026501
422.8788	0.027471
423.0975	0.027787
423.3162	0.027387
423.5349	0.028652
423.7536	0.026480
423.9724	0.024624
424.1911	0.026206
424.4099	0.025995
424.6287	0.025763
424.8475	0.025067
425.0663	0.026543
425.2851	0.025173
425.5039	0.025341
425.7228	0.024118
425.9416	0.022494
426.1605	0.024456
426.3793	0.022115
426.5982	0.024329
426.8171	0.022895
427.0361	0.024666
427.2550	0.025932
427.4739	0.025615
427.6929	0.025320
427.9118	0.023275
428.1308	0.025594
428.3498	0.025763
428.5688	0.024688
428.7878	0.024498
429.0068	0.025278
429.2259	0.025489
429.4449	0.025700
429.6640	0.029221
429.8831	0.028546
430.1022	0.028399
430.3213	0.031161
