# Wavelength (nm)	Intensity (a.u.)
197.7802	0.000872
197.9842	-0.000816
198.1882	0.000429
198.3922	0.000619
198.5963	0.000239
198.8003	0.000070
199.0044	-0.000288
199.2085	-0.000162
199.4126	0.000492
199.6168	-0.000014
199.8209	0.000893
200.0251	-0.000584
200.2292	0.000893
200.4334	-0.000373
200.6376	0.000091
200.8418	-0.000331
201.0461	0.000028
201.2503	-0.000373
201.4546	0.002582
201.6589	-0.000816
201.8631	0.000345
202.0674	-0.000098
202.2718	-0.000056
202.4761	0.001252
202.6805	0.000281
202.8848	-0.000985
203.0892	-0.001365
203.2936	0.000324
203.4980	0.002075
203.7024	0.000155
203.9069	-0.000689
204.1113	-0.001069
204.3158	-0.000077
204.5203	0.001020
204.7248	0.000915
204.9293	0.000619
205.1338	0.000598
205.3384	-0.000056
205.5430	-0.000141
205.7475	0.000429
205.9521	-0.000162
206.1567	-0.000120
206.3614	-0.000352
206.5660	0.000767
206.7706	0.000408
206.9753	-0.000605
207.1800	0.000640
207.3847	0.000387
207.5894	0.001105
207.7941	-0.000436
207.9989	0.000324
208.2036	0.000535
208.4084	0.002075
208.6132	-0.000267
208.8180	0.001442
209.0228	0.000345
209.2276	0.000492
209.4325	0.000260
209.6373	-0.000922
209.8422	-0.000689
210.0471	0.000492
210.2520	0.000746
210.4569	0.000366
210.6618	0.000788
210.8668	0.001717
211.0718	-0.000162
211.2767	-0.001048
211.4817	0.000113
211.6867	0.002075
211.8918	0.000049
212.0968	0.000366
212.3018	-0.000162
212.5069	0.001337
212.7120	0.000408
212.9171	0.000893
213.1222	-0.000542
213.3273	0.001105
213.5325	-0.000267
213.7376	0.000007
213.9428	0.000134
214.1480	0.001358
214.3532	-0.000183
214.5584	0.001126
214.7636	0.000113
214.9689	-0.000689
215.1741	0.000366
215.3794	-0.000542
215.5847	-0.000879
215.7900	0.000830
215.9953	0.000408
216.2007	0.000767
216.4060	-0.000183
216.6114	0.001105
216.8168	-0.001470
217.0222	0.001252
217.2276	-0.000246
217.4330	0.000408
217.6384	-0.000246
217.8439	-0.000035
218.0494	0.001316
218.2548	0.000134
218.4603	-0.001470
218.6659	0.001252
218.8714	0.000640
219.0769	-0.000246
219.2825	0.000303
219.4881	-0.001175
219.6936	-0.000373
219.8992	0.001189
220.1049	0.001590
220.3105	0.001062
220.5161	0.000197
220.7218	-0.000689
220.9275	0.000366
221.1332	-0.000478
221.3389	0.001400
221.5446	0.000661
221.7503	-0.001386
221.9561	0.000514
222.1618	-0.000774
222.3676	0.001252
222.5734	-0.000098
222.7792	0.000345
222.9850	-0.000162
223.1909	0.000640
223.3967	-0.000415
223.6026	0.000915
223.8085	0.000028
224.0144	0.000936
224.2203	-0.000478
224.4262	0.000598
224.6322	0.000535
224.8381	0.000999
225.0441	0.000408
225.2501	0.000176
225.4561	0.000091
225.6621	0.001379
225.8681	0.000915
226.0742	0.000598
226.2802	0.001506
226.4863	0.000260
226.6924	0.000366
226.8985	0.001041
227.1046	-0.000943
227.3107	-0.000204
227.5169	-0.000647
227.7230	0.000915
227.9292	0.000303
228.1354	0.001316
228.3416	-0.001006
228.5478	-0.000415
228.7541	0.001674
228.9603	0.000028
229.1666	0.000239
229.3729	-0.000246
229.5791	0.000281
229.7855	0.000514
229.9918	0.001168
230.1981	0.001506
230.4045	-0.000711
230.6108	0.000851
230.8172	0.001147
231.0236	-0.000732
231.2300	0.000197
231.4364	0.000091
231.6429	-0.000331
231.8493	0.002160
232.0558	-0.001217
232.2623	-0.000879
232.4688	-0.000563
232.6753	0.000851
232.8818	-0.000267
233.0884	0.001759
233.2949	0.000682
233.5015	0.000176
233.7081	-0.000310
233.9147	-0.000352
234.1213	0.000387
234.3279	-0.001090
234.5346	-0.000542
234.7413	-0.000964
234.9479	0.000682
235.1546	0.000450
235.3613	-0.000162
235.5680	0.000134
235.7748	-0.000183
235.9815	0.000598
236.1883	0.000598
236.3951	0.001147
236.6018	0.000408
236.8087	0.002519
237.0155	0.000176
237.2223	-0.000816
237.4292	0.000725
237.6360	0.000640
237.8429	0.001843
238.0498	0.001041
238.2567	0.001231
238.4636	0.001949
238.6706	-0.001386
238.8775	-0.000056
239.0845	0.000830
239.2915	0.001210
239.4985	0.001632
239.7055	0.001316
239.9125	-0.000626
240.1195	-0.000267
240.3266	0.000049
240.5337	0.000661
240.7407	0.000978
240.9478	0.000556
241.1549	-0.001703
241.3621	0.000872
241.5692	-0.000183
241.7764	0.000049
241.9835	-0.000795
242.1907	0.000556
242.3979	0.000366
242.6051	0.000408
242.8124	-0.001808
243.0196	-0.000415
243.2269	0.000535
243.4341	-0.000204
243.6414	-0.000310
243.8487	0.000176
244.0560	0.000598
244.2634	0.001041
244.4707	-0.000141
244.6781	0.001970
244.8854	-0.000795
245.0928	0.000619
245.3002	-0.001766
245.5076	0.000028
245.7151	0.001083
245.9225	0.000176
246.1300	0.000303
246.3375	0.000619
246.5449	-0.000964
246.7524	0.000619
246.9600	0.000872
247.1675	0.000640
247.3750	0.000281
247.5826	0.001337
247.7902	0.001843
247.9978	0.000492
248.2054	-0.000901
248.4130	0.000682
248.6206	-0.000120
248.8283	-0.000141
249.0359	0.000408
249.2436	0.001294
249.4513	-0.000373
249.6590	0.000915
249.8667	0.000535
250.0745	0.000091
250.2822	0.001083
250.4900	0.000556
250.6978	0.000661
250.9056	0.001316
251.1134	0.000049
251.3212	0.000155
251.5290	0.001189
251.7369	-0.000605
251.9447	0.000725
252.1526	-0.000816
252.3605	0.000239
252.5684	0.001147
252.7763	0.000704
252.9843	0.000535
253.1922	0.000450
253.4002	0.001632
253.6082	0.000197
253.8162	-0.000626
254.0242	0.000134
254.2322	-0.000732
254.4402	0.000872
254.6483	0.000408
254.8564	-0.000288
255.0644	-0.000521
255.2725	0.001358
255.4806	-0.000014
255.6888	-0.000331
255.8969	0.001041
256.1051	-0.000035
256.3132	0.000682
256.5214	0.000851
256.7296	0.001252
256.9378	-0.000141
257.1460	-0.000225
257.3543	-0.000352
257.5625	0.001041
257.7708	0.000640
257.9791	-0.000077
258.1874	0.000324
258.3957	-0.000120
258.6040	-0.000373
258.8124	0.000091
259.0207	0.000049
259.2291	0.001294
259.4375	0.001062
259.6459	0.000851
259.8543	0.000725
260.0627	0.001168
260.2711	0.000134
260.4796	0.001632
260.6881	0.001210
260.8965	0.000851
261.1050	0.000324
261.3135	-0.000246
261.5221	-0.000183
261.7306	0.000070
261.9392	-0.000098
262.1477	0.000134
262.3563	0.000492
262.5649	0.000408
262.7735	-0.000943
262.9822	0.000471
263.1908	0.001189
263.3995	0.001484
263.6081	-0.001048
263.8168	0.000788
264.0255	0.000070
264.2342	0.000704
264.4429	-0.000331
264.6517	0.001273
264.8604	-0.001280
265.0692	0.000281
265.2780	-0.000246
265.4868	0.000471
265.6956	0.001358
265.9044	0.000957
266.1133	-0.000922
266.3221	0.001717
266.5310	-0.000394
266.7399	0.000450
266.9488	-0.000858
267.1577	0.001674
267.3666	-0.000162
267.5755	0.001885
267.7845	0.000725
267.9935	-0.001048
268.2024	0.001020
268.4114	0.000577
268.6205	0.001105
268.8295	0.000577
269.0385	0.000113
269.2476	0.001105
269.4566	0.000281
269.6657	-0.000014
269.8748	0.000408
270.0839	-0.000732
270.2931	0.000809
270.5022	0.000450
270.7114	-0.001027
270.9205	0.000091
271.1297	-0.000478
271.3389	0.000704
271.5481	0.000345
271.7573	0.001041
271.9666	-0.000056
272.1758	0.001020
272.3851	-0.000225
272.5944	0.001020
272.8037	-0.000605
273.0130	0.000049
273.2223	-0.000478
273.4316	0.000872
273.6410	0.000260
273.8504	0.000471
274.0597	-0.000816
274.2691	0.000577
274.4785	-0.001470
274.6880	0.000471
274.8974	0.001252
275.1069	0.000767
275.3163	0.001210
275.5258	0.000725
275.7353	-0.000098
275.9448	0.000514
276.1543	-0.001027
276.3639	0.000872
276.5734	-0.000077
276.7830	0.000155
276.9926	0.000514
277.2022	0.000851
277.4118	0.000957
277.6214	-0.000098
277.8310	-0.000098
278.0407	0.000725
278.2503	0.000830
278.4600	0.000197
278.6697	0.000091
278.8794	0.000239
279.0891	0.001083
279.2989	-0.000436
279.5086	-0.000668
279.7184	0.000028
279.9281	-0.000056
280.1379	-0.001027
280.3477	0.001506
280.5576	0.000450
280.7674	0.000619
280.9772	0.000492
281.1871	-0.000478
281.3970	-0.000098
281.6069	0.000915
281.8168	0.000324
282.0267	0.000788
282.2366	0.001780
282.4466	-0.001513
282.6565	-0.000816
282.8665	-0.000267
283.0765	-0.000310
283.2865	0.001020
283.4965	-0.000120
283.7065	0.000598
283.9166	-0.000563
284.1266	0.001316
284.3367	0.000535
284.5468	-0.000985
284.7569	0.000577
284.9670	0.001695
285.1771	0.001189
285.3873	0.000619
285.5974	0.000134
285.8076	-0.000141
286.0178	-0.000225
286.2280	0.001316
286.4382	0.000324
286.6484	-0.000267
286.8587	-0.000288
287.0689	0.000746
287.2792	0.000598
287.4895	-0.001618
287.6998	-0.000584
287.9101	0.000936
288.1204	0.000619
288.3308	0.000556
288.5411	-0.000056
288.7515	0.000788
288.9619	0.000028
289.1723	0.000957
289.3827	0.000915
289.5931	0.002730
289.8035	0.000408
290.0140	-0.001112
290.2245	-0.000732
290.4349	0.000176
290.6454	0.000767
290.8559	0.001273
291.0665	0.000514
291.2770	0.001210
291.4875	0.000218
291.6981	-0.000077
291.9087	0.000851
292.1193	-0.000647
292.3299	0.000113
292.5405	0.000535
292.7511	0.001294
292.9618	0.000957
293.1724	0.001252
293.3831	-0.000500
293.5938	0.000704
293.8045	0.001590
294.0152	0.000830
294.2260	-0.000521
294.4367	0.000957
294.6475	0.000176
294.8582	0.001780
295.0690	0.000155
295.2798	0.001674
295.4906	-0.001154
295.7015	-0.000373
295.9123	-0.000056
296.1232	0.001083
296.3340	-0.001555
296.5449	0.000577
296.7558	0.000134
296.9667	0.001801
297.1777	0.000070
297.3886	0.000260
297.5995	-0.000436
297.8105	0.000788
298.0215	0.001273
298.2325	0.000577
298.4435	-0.000647
298.6545	-0.000457
298.8656	0.000197
299.0766	-0.000183
299.2877	0.000725
299.4988	0.000197
299.7099	-0.000077
299.9210	-0.000204
300.1321	-0.000436
300.3432	0.001210
300.5544	0.000134
300.7655	0.000746
300.9767	-0.000774
301.1879	-0.000500
301.3991	-0.000858
301.6103	0.000471
301.8215	0.000450
302.0328	0.000514
302.2441	-0.000246
302.4553	0.001083
302.6666	-0.000478
302.8779	0.001168
303.0892	-0.000014
303.3006	0.000957
303.5119	-0.000500
303.7233	-0.000774
303.9346	-0.000605
304.1460	0.000281
304.3574	-0.001069
304.5688	-0.000183
304.7803	0.001083
304.9917	0.000725
305.2031	0.000028
305.4146	0.001801
305.6261	0.001527
305.8376	0.000915
306.0491	-0.000141
306.2606	0.000113
306.4722	0.000324
306.6837	0.002455
306.8953	0.001738
307.1069	-0.000035
307.3184	-0.000246
307.5301	0.001885
307.7417	0.000746
307.9533	0.000978
308.1650	0.000514
308.3766	0.001231
308.5883	0.001611
308.8000	0.000809
309.0117	-0.000457
309.2234	0.001105
309.4351	0.001273
309.6469	0.001273
309.8586	0.000450
310.0704	-0.000310
310.2822	0.000830
310.4940	0.000872
310.7058	0.001020
310.9176	0.001316
311.1295	0.000514
311.3413	0.000830
311.5532	0.001527
311.7651	0.001801
311.9770	-0.000711
312.1889	0.001168
312.4008	0.001337
312.6127	0.000851
312.8247	0.000640
313.0366	0.003131
313.2486	0.000260
313.4606	0.001421
313.6726	0.000387
313.8846	0.000682
314.0967	0.000134
314.3087	0.001379
314.5208	0.001527
314.7328	0.001337
314.9449	0.000936
315.1570	0.002202
315.3692	0.002392
315.5813	0.001569
315.7934	0.002118
316.0056	0.002392
316.2177	0.000872
316.4299	0.001484
316.6421	-0.000711
316.8543	0.001907
317.0666	0.000725
317.2788	0.001527
317.4911	0.000704
317.7033	0.001020
317.9156	0.001970
318.1279	0.000324
318.3402	0.001780
318.5525	0.001168
318.7649	0.002075
318.9772	0.002286
319.1896	-0.000183
319.4019	0.001210
319.6143	0.001843
319.8267	0.001759
320.0392	0.000324
320.2516	0.002244
320.4640	0.001632
320.6765	0.000471
320.8890	0.000893
321.1014	0.001463
321.3139	0.000239
321.5265	0.001780
321.7390	0.001611
321.9515	0.003046
322.1641	0.001780
322.3766	0.000872
322.5892	0.000915
322.8018	0.001590
323.0144	0.002286
323.2270	0.002624
323.4397	0.001717
323.6523	0.001695
323.8650	0.001337
324.0777	0.003321
324.2904	0.002624
324.5031	0.001885
324.7158	0.002793
324.9285	0.002709
325.1412	0.001674
325.3540	0.001484
325.5668	0.001421
325.7796	0.003257
325.9924	0.001864
326.2052	0.002097
326.4180	0.002244
326.6308	0.003067
326.8437	0.002286
327.0566	0.003553
327.2694	0.003173
327.4823	0.002920
327.6952	0.001717
327.9082	0.001885
328.1211	0.002455
328.3340	0.002012
328.5470	0.002118
328.7600	0.003616
328.9730	0.002118
329.1860	0.002054
329.3990	0.003257
329.6120	0.003257
329.8251	0.003131
330.0381	0.003869
330.2512	0.002687
330.4643	0.001611
330.6774	0.003553
330.8905	0.002160
331.1036	0.001463
331.3167	0.003067
331.5299	0.003067
331.7431	0.003342
331.9562	0.004587
332.1694	0.002920
332.3826	0.003173
332.5959	0.003743
332.8091	0.003152
333.0223	0.002751
333.2356	0.004481
333.4489	0.005642
333.6622	0.002666
333.8755	0.004819
334.0888	0.004080
334.3021	0.002730
334.5154	0.004038
334.7288	0.004503
334.9422	0.004207
335.1555	0.004080
335.3689	0.005790
335.5823	0.005832
335.7958	0.003806
336.0092	0.004671
336.2227	0.003236
336.4361	0.005516
336.6496	0.004334
336.8631	0.004460
337.0766	0.004693
337.2901	0.003067
337.5036	0.004756
337.7172	0.006423
337.9307	0.004798
338.1443	0.005262
338.3579	0.005938
338.5715	0.005642
338.7851	0.006465
338.9987	0.006318
339.2124	0.004671
339.4260	0.004798
339.6397	0.004376
339.8533	0.006676
340.0670	0.005136
340.2807	0.006719
340.4945	0.005853
340.7082	0.007077
340.9219	0.005896
341.1357	0.006275
341.3495	0.006487
341.5633	0.005600
341.7771	0.005051
341.9909	0.003912
342.2047	0.007415
342.4185	0.005917
342.6324	0.005030
342.8463	0.006740
343.0601	0.006529
343.2740	0.006782
343.4879	0.006001
343.7019	0.006824
343.9158	0.006423
344.1297	0.006149
344.3437	0.006550
344.5577	0.006402
344.7717	0.007394
344.9857	0.005051
345.1997	0.007289
345.4137	0.005938
345.6277	0.006465
345.8418	0.007289
346.0559	0.005938
346.2699	0.006233
346.4840	0.005094
346.6981	0.006803
346.9123	0.006782
347.1264	0.005874
347.3406	0.007711
347.5547	0.006993
347.7689	0.008893
347.9831	0.006550
348.1973	0.008048
348.4115	0.008449
348.6257	0.006508
348.8400	0.008006
349.0542	0.007120
349.2685	0.008196
349.4828	0.008154
349.6971	0.009040
349.9114	0.008766
350.1257	0.008344
350.3400	0.007542
350.5544	0.008703
350.7687	0.006676
350.9831	0.009019
351.1975	0.008724
351.4119	0.008449
351.6263	0.008893
351.8407	0.007035
352.0552	0.008871
352.2696	0.007415
352.4841	0.008871
352.6986	0.008639
352.9131	0.009610
353.1276	0.008344
353.3421	0.008914
353.5566	0.009547
353.7712	0.010539
353.9858	0.007690
354.2003	0.007753
354.4149	0.010201
354.6295	0.008850
354.8441	0.009272
355.0588	0.009462
355.2734	0.010096
355.4881	0.009842
355.7027	0.011003
355.9174	0.008597
356.1321	0.009758
356.3468	0.008618
356.5615	0.009547
356.7763	0.008850
356.9910	0.009104
357.2058	0.007922
357.4206	0.009695
357.6353	0.008112
357.8501	0.009990
358.0650	0.011573
358.2798	0.010264
358.4946	0.008048
358.7095	0.010877
358.9243	0.010539
359.1392	0.010581
359.3541	0.010243
359.5690	0.010792
359.7839	0.008154
359.9989	0.009505
360.2138	0.008956
360.4288	0.009990
360.6438	0.010750
360.8587	0.010623
361.0737	0.009019
361.2888	0.008428
361.5038	0.009378
361.7188	0.011088
361.9339	0.009863
362.1489	0.010708
362.3640	0.010180
362.5791	0.009526
362.7942	0.009526
363.0093	0.011024
363.2245	0.011066
363.4396	0.010096
363.6548	0.010138
363.8699	0.011974
364.0851	0.010476
364.3003	0.009673
364.5155	0.009589
364.7308	0.011552
364.9460	0.011763
365.1612	0.010518
365.3765	0.012797
365.5918	0.010961
365.8071	0.011742
366.0224	0.011341
366.2377	0.011045
366.4530	0.011573
366.6684	0.011805
366.8837	0.011636
367.0991	0.011974
367.3145	0.012058
367.5299	0.012058
367.7453	0.012143
367.9607	0.012523
368.1761	0.013852
368.3916	0.012080
368.6070	0.011679
368.8225	0.012417
369.0380	0.012818
369.2535	0.013662
369.4690	0.014570
369.6845	0.012966
369.9001	0.013261
370.1156	0.013240
370.3312	0.015203
370.5468	0.013684
370.7624	0.012692
370.9780	0.011341
371.1936	0.012734
371.4092	0.014021
371.6249	0.014443
371.8405	0.012248
372.0562	0.012417
372.2719	0.012755
372.4876	0.013240
372.7033	0.014760
372.9190	0.013029
373.1348	0.013557
373.3505	0.014465
373.5663	0.014275
373.7820	0.015119
373.9978	0.013557
374.2136	0.015942
374.4294	0.013747
374.6453	0.016216
374.8611	0.016849
375.0770	0.017419
375.2928	0.015077
375.5087	0.018137
375.7246	0.016638
375.9405	0.016849
376.1564	0.017841
376.3724	0.016343
376.5883	0.015604
376.8043	0.017630
377.0203	0.016786
377.2362	0.016828
377.4522	0.018538
377.6682	0.017525
377.8843	0.018137
378.1003	0.019445
378.3164	0.017166
378.5324	0.019614
378.7485	0.018855
378.9646	0.020480
379.1807	0.019910
379.3968	0.020522
379.6129	0.020226
379.8291	0.021218
380.0452	0.020142
380.2614	0.019678
380.4776	0.020606
380.6938	0.019530
380.9100	0.020248
381.1262	0.020691
381.3424	0.019741
381.5587	0.020649
381.7749	0.021134
381.9912	0.021113
382.2075	0.020712
382.4238	0.019593
382.6401	0.022020
382.8564	0.021809
383.0728	0.021873
383.2891	0.021809
383.5055	0.019804
383.7219	0.022844
383.9382	0.024384
384.1546	0.024089
384.3711	0.021957
384.5875	0.022210
384.8039	0.024806
385.0204	0.023624
385.2368	0.023498
385.4533	0.024089
385.6698	0.023329
385.8863	0.023076
386.1028	0.023603
386.3194	0.023181
386.5359	0.023434
386.7525	0.024870
386.9690	0.024891
387.1856	0.024405
387.4022	0.026073
387.6188	0.025039
387.8355	0.026009
388.0521	0.024680
388.2687	0.026073
388.4854	0.026769
388.7021	0.025503
388.9188	0.026748
389.1355	0.025672
389.3522	0.024511
389.5689	0.026854
389.7856	0.026326
390.0024	0.025672
390.2192	0.026495
390.4359	0.025250
390.6527	0.026453
390.8695	0.026157
391.0863	0.026854
391.3032	0.026875
391.5200	0.028458
391.7369	0.028310
391.9537	0.029703
392.1706	0.027993
392.3875	0.031412
392.6044	0.030231
392.8213	0.030568
393.0383	0.031244
393.2552	0.030779
393.4722	0.031898
393.6891	0.030315
393.9061	0.030526
394.1231	0.030062
394.3401	0.031159
394.5572	0.030653
394.7742	0.029576
394.9912	0.031434
395.2083	0.031792
395.4254	0.029893
395.6425	0.032003
395.8596	0.029830
396.0767	0.030737
396.2938	0.030632
396.5109	0.030484
396.7281	0.031729
396.9453	0.031286
397.1624	0.032995
397.3796	0.033671
397.5968	0.037934
397.8140	0.034663
398.0313	0.036056
398.2485	0.036837
398.4658	0.035824
398.6830	0.036879
398.9003	0.037385
399.1176	0.035739
399.3349	0.037111
399.5522	0.033481
399.7696	0.037407
399.9869	0.032890
400.2043	0.033776
400.4216	0.034578
400.6390	0.034895
400.8564	0.033903
401.0738	0.036393
401.2912	0.036668
401.5087	0.036161
401.7261	0.033354
401.9436	0.035127
402.1610	0.033439
402.3785	0.035190
402.5960	0.032995
402.8135	0.034409
403.0310	0.034325
403.2486	0.036119
403.4661	0.035465
403.6837	0.035401
403.9013	0.036225
404.1189	0.036203
404.3365	0.035401
404.5541	0.036436
404.7717	0.036457
404.9893	0.036182
405.2070	0.036668
405.4246	0.039179
405.6423	0.036562
405.8600	0.037660
406.0777	0.037892
406.2954	0.035929
406.5131	0.034452
406.7309	0.037259
406.9486	0.035465
407.1664	0.035655
407.3842	0.034642
407.6020	0.034262
407.8198	0.033882
408.0376	0.034874
408.2554	0.032953
408.4733	0.034916
408.6911	0.035634
408.9090	0.037048
409.1269	0.036288
409.3448	0.035613
409.5627	0.034789
409.7806	0.036161
409.9985	0.036963
410.2165	0.036056
410.4344	0.034979
410.6524	0.035866
410.8704	0.033291
411.0884	0.034747
411.3064	0.034853
411.5244	0.034536
411.7424	0.036161
411.9605	0.032827
412.1785	0.034030
412.3966	0.037153
412.6147	0.037090
412.8328	0.038209
413.0509	0.035887
413.2690	0.036942
413.4871	0.035697
413.7053	0.039243
413.9234	0.038103
414.1416	0.037343
414.3598	0.038736
414.5780	0.036035
414.7962	0.037554
415.0144	0.036942
415.2326	0.036014
415.4509	0.036541
415.6692	0.037554
415.8874	0.035401
416.1057	0.036858
416.3240	0.036288
416.5423	0.036921
416.7606	0.036415
416.9790	0.038398
417.1973	0.039707
417.4157	0.037934
417.6341	0.036752
417.8524	0.036520
418.0708	0.037069
418.2893	0.035676
418.5077	0.039348
418.7261	0.035085
418.9446	0.038103
419.1630	0.036879
419.3815	0.039580
419.6000	0.038610
419.8185	0.040192
420.0370	0.037681
420.2555	0.039095
420.4741	0.037850
420.6926	0.040551
420.9112	0.041016
421.1298	0.043506
421.3483	0.042029
421.5669	0.044836
421.7856	0.044604
422.0042	0.048529
422.2228	0.046756
422.4415	0.045722
422.6601	0.043168
422.8788	0.044815
423.0975	0.046018
423.3162	0.043696
423.5349	0.042366
423.7536	0.046630
423.9724	0.041923
424.1911	0.045532
424.4099	0.042029
424.6287	0.041227
424.8475	0.042155
425.0663	0.040952
425.2851	0.041733
425.5039	0.044245
425.7228	0.043675
425.9416	0.040446
426.1605	0.040256
426.3793	0.037195
426.5982	0.041058
426.8171	0.039939
427.0361	0.039264
427.2550	0.040171
427.4739	0.041754
427.6929	0.043654
427.9118	0.040720
428.1308	0.042662
428.3498	0.040678
428.5688	0.038926
428.7878	0.043358
429.0068	0.041881
429.2259	0.041670
429.4449	0.043295
429.6640	0.043823
429.8831	0.047875
430.1022	0.047411
