# Wavelength	Intensity diff (sample - DMSO)
197.780200 -0.000710
197.984200 -0.001551
198.188200 -0.001245
198.392200 0.000057
198.596300 -0.000591
198.800300 -0.000218
199.004400 0.000061
199.208500 -0.000225
199.412600 -0.000827
199.616800 -0.000703
199.820900 0.000556
200.025100 -0.000259
200.229200 0.000536
200.433400 0.000180
200.637600 0.000200
200.841800 -0.000042
201.046100 -0.000348
201.250300 -0.001772
201.454600 -0.001927
201.658900 -0.001529
201.863100 -0.000457
202.067400 -0.000509
202.271800 -0.001167
202.476100 -0.000714
202.680500 -0.000443
202.884800 -0.000903
203.089200 -0.000953
203.293600 -0.000581
203.498000 -0.000225
203.702400 -0.000052
203.906900 0.000046
204.111300 -0.000190
204.315800 -0.000285
204.520300 -0.001420
204.724800 -0.000426
204.929300 -0.000822
205.133800 -0.000590
205.338400 -0.000974
205.543000 -0.000820
205.747500 -0.000492
205.952100 -0.000432
206.156700 -0.001396
206.361400 0.001088
206.566000 -0.000010
206.770600 -0.001308
206.975300 -0.000623
207.180000 0.000833
207.384700 -0.000130
207.589400 0.000284
207.794100 -0.000531
207.998900 0.000625
208.203600 -0.001543
208.408400 -0.000376
208.613200 -0.001002
208.818000 -0.000366
209.022800 -0.000383
209.227600 -0.000264
209.432500 -0.000770
209.637300 0.000922
209.842200 -0.000363
210.047100 -0.000267
210.252000 0.000123
210.456900 -0.000527
210.661800 -0.001470
210.866800 -0.000749
211.071800 -0.001592
211.276700 -0.001108
211.481700 -0.000760
211.686700 0.000145
211.891800 -0.000221
212.096800 -0.002025
212.301800 -0.000478
212.506900 -0.001927
212.712000 -0.000203
212.917100 -0.001392
213.122200 -0.001259
213.327300 -0.002011
213.532500 0.001024
213.737600 -0.000570
213.942800 -0.000144
214.148000 0.000258
214.353200 0.000144
214.558400 -0.000049
214.763600 -0.002127
214.968900 -0.000461
215.174100 -0.001247
215.379400 0.001066
215.584700 -0.001417
215.790000 -0.000654
215.995300 -0.000524
216.200700 -0.000383
216.406000 -0.001048
216.611400 -0.000067
216.816800 -0.000833
217.022200 -0.000344
217.227600 -0.000323
217.433000 0.000320
217.638400 -0.000886
217.843900 -0.000717
218.049400 0.000369
218.254800 -0.002141
218.460300 -0.001143
218.665900 -0.000450
218.871400 -0.001368
219.076900 -0.000482
219.282500 0.000102
219.488100 -0.000549
219.693600 -0.000239
219.899200 -0.000892
220.104900 -0.001020
220.310500 -0.000317
220.516100 0.000397
220.721800 -0.000875
220.927500 -0.001428
221.133200 -0.000112
221.338900 -0.000745
221.544600 -0.000383
221.750300 -0.002064
221.956100 -0.000361
222.161800 0.000123
222.367600 -0.000696
222.573400 0.000084
222.779200 0.000826
222.985000 0.000341
223.190900 -0.000791
223.396700 0.000627
223.602600 -0.000405
223.808500 -0.000816
224.014400 -0.001097
224.220300 -0.000669
224.426200 -0.000394
224.632200 0.000335
224.838100 -0.000978
225.044100 -0.001677
225.250100 0.000310
225.456100 -0.000398
225.662100 0.000236
225.868100 0.000186
226.074200 0.000151
226.280200 0.000007
226.486300 -0.000925
226.692400 -0.000123
226.898500 -0.000507
227.104600 -0.000475
227.310700 -0.001572
227.516900 -0.000207
227.723000 0.000436
227.929200 -0.001364
228.135400 -0.000502
228.341600 -0.000338
228.547800 -0.000358
228.754100 -0.000590
228.960300 0.000250
229.166600 -0.000007
229.372900 -0.000032
229.579100 -0.000007
229.785500 0.000447
229.991800 0.000397
230.198100 -0.000351
230.404500 0.000270
230.610800 -0.000611
230.817200 0.000429
231.023600 -0.000021
231.230000 -0.000915
231.436400 -0.000628
231.642900 -0.000498
231.849300 0.000334
232.055800 0.000000
232.262300 -0.001804
232.468800 0.000328
232.675300 -0.000921
232.881800 -0.000577
233.088400 -0.000264
233.294900 -0.000541
233.501500 -0.000218
233.708100 -0.000728
233.914700 0.000137
234.121300 -0.000293
234.327900 -0.000243
234.534600 -0.000126
234.741300 -0.001037
234.947900 -0.000844
235.154600 -0.001314
235.361300 -0.001667
235.568000 -0.000542
235.774800 -0.000337
235.981500 0.000898
236.188300 0.000070
236.395100 -0.000602
236.601800 -0.000402
236.808700 0.000257
237.015500 -0.002080
237.222300 -0.000851
237.429200 -0.002162
237.636000 0.000131
237.842900 -0.000286
238.049800 0.000188
238.256700 0.000039
238.463600 -0.000556
238.670600 -0.000988
238.877500 -0.000590
239.084500 0.000056
239.291500 -0.000914
239.498500 -0.000777
239.705500 0.000105
239.912500 -0.000320
240.119500 0.000510
240.326600 -0.000995
240.533700 -0.000297
240.740700 0.000008
240.947800 -0.000827
241.154900 -0.001093
241.362100 -0.000611
241.569200 0.000883
241.776400 -0.000826
241.983500 -0.000675
242.190700 -0.001269
242.397900 0.000039
242.605100 -0.000243
242.812400 -0.000749
243.019600 -0.001434
243.226900 -0.001030
243.434100 -0.000450
243.641400 -0.001013
243.848700 -0.000084
244.056000 -0.000046
244.263400 0.000398
244.470700 -0.000165
244.678100 -0.000945
244.885400 -0.000956
245.092800 -0.000253
245.300200 0.000282
245.507600 -0.001832
245.715100 -0.001185
245.922500 -0.000693
246.130000 0.000085
246.337500 -0.000868
246.544900 0.000584
246.752400 -0.001944
246.960000 -0.000932
247.167500 -0.000555
247.375000 0.000938
247.582600 -0.000868
247.790200 0.000370
247.997800 -0.000263
248.205400 -0.002454
248.413000 -0.000208
248.620600 -0.000305
248.828300 -0.001051
249.035900 -0.001210
249.243600 -0.000949
249.451300 -0.001533
249.659000 -0.001386
249.866700 -0.000724
250.074500 -0.000850
250.282200 -0.001494
250.490000 -0.000246
250.697800 0.000285
250.905600 0.000419
251.113400 -0.000869
251.321200 -0.000049
251.529000 -0.000183
251.736900 -0.000348
251.944700 -0.001316
252.152600 -0.001769
252.360500 -0.000066
252.568400 -0.000140
252.776300 0.000063
252.984300 -0.000661
253.192200 -0.001175
253.400200 -0.000006
253.608200 0.000154
253.816200 -0.002074
254.024200 -0.000229
254.232200 -0.000250
254.440200 0.000398
254.648300 -0.000444
254.856400 -0.000394
255.064400 -0.000207
255.272500 -0.000453
255.480600 -0.000264
255.688800 -0.000353
255.896900 -0.000984
256.105100 -0.002015
256.313200 -0.000112
256.521400 -0.000472
256.729600 -0.000276
256.937800 -0.001319
257.146000 0.000092
257.354300 0.000581
257.562500 -0.000605
257.770800 0.000004
257.979100 -0.000404
258.187400 -0.000291
258.395700 -0.000890
258.604000 -0.000924
258.812400 0.000236
259.020700 -0.001002
259.229100 -0.001238
259.437500 -0.000633
259.645900 -0.001238
259.854300 -0.000577
260.062700 -0.001071
260.271100 -0.000787
260.479600 -0.000671
260.688100 -0.001128
260.896500 -0.001582
261.105000 -0.000408
261.313500 0.000176
261.522100 -0.000886
261.730600 -0.000500
261.939200 -0.000359
262.147700 -0.000565
262.356300 0.000327
262.564900 -0.000003
262.773500 -0.000861
262.982200 -0.000443
263.190800 -0.000201
263.399500 -0.001346
263.608100 -0.000598
263.816800 -0.000601
264.025500 0.000212
264.234200 0.000500
264.442900 -0.000447
264.651700 -0.001410
264.860400 -0.000218
265.069200 -0.000446
265.278000 -0.000791
265.486800 -0.000781
265.695600 0.000474
265.904400 0.000173
266.113300 -0.000564
266.322100 -0.000914
266.531000 0.000215
266.739900 -0.000257
266.948800 -0.001516
267.157700 -0.000440
267.366600 -0.001027
267.575500 -0.000859
267.784500 -0.000133
267.993500 -0.000401
268.202400 -0.000376
268.411400 -0.000942
268.620500 -0.000581
268.829500 0.000399
269.038500 0.000229
269.247600 -0.001217
269.456600 -0.000816
269.665700 -0.000069
269.874800 -0.000579
270.083900 -0.001579
270.293100 0.000517
270.502200 -0.000826
270.711400 -0.000095
270.920500 -0.000812
271.129700 -0.000795
271.338900 -0.001280
271.548100 0.000138
271.757300 -0.001012
271.966600 -0.000457
272.175800 -0.000808
272.385100 -0.001417
272.594400 0.000124
272.803700 -0.001146
273.013000 -0.000964
273.222300 -0.000555
273.431600 -0.000806
273.641000 -0.002061
273.850400 0.000056
274.059700 -0.000795
274.269100 -0.001434
274.478500 -0.000425
274.688000 -0.000917
274.897400 -0.001442
275.106900 0.000450
275.316300 -0.001625
275.525800 -0.000840
275.735300 0.001171
275.944800 -0.000457
276.154300 -0.000196
276.363900 -0.000837
276.573400 -0.000695
276.783000 0.000318
276.992600 -0.000531
277.202200 -0.000127
277.411800 -0.000215
277.621400 0.000616
277.831000 -0.001444
278.040700 -0.001108
278.250300 -0.001086
278.460000 -0.001133
278.669700 -0.000277
278.879400 0.000436
279.089100 -0.000355
279.298900 -0.000292
279.508600 -0.001205
279.718400 -0.000611
279.928100 0.000697
280.137900 -0.000963
280.347700 0.000130
280.557600 -0.000179
280.767400 -0.001639
280.977200 -0.000868
281.187100 0.000778
281.397000 -0.000973
281.606900 0.000229
281.816800 -0.001100
282.026700 -0.001188
282.236600 -0.000604
282.446600 -0.000576
282.656500 0.000036
282.866500 -0.000320
283.076500 0.000433
283.286500 -0.000759
283.496500 -0.000725
283.706500 -0.000333
283.916600 0.000422
284.126600 0.000292
284.336700 0.000492
284.546800 0.000362
284.756900 -0.000312
284.967000 -0.000517
285.177100 -0.000481
285.387300 0.000753
285.597400 -0.000474
285.807600 -0.000771
286.017800 -0.001234
286.228000 0.000432
286.438200 -0.001023
286.648400 -0.001249
286.858700 -0.001621
287.068900 -0.000805
287.279200 -0.000510
287.489500 -0.000362
287.699800 -0.001066
287.910100 -0.000710
288.120400 -0.000500
288.330800 -0.000205
288.541100 -0.001786
288.751500 0.000148
288.961900 0.000133
289.172300 -0.000531
289.382700 -0.000221
289.593100 -0.000837
289.803500 0.001143
290.014000 -0.000749
290.224500 -0.000404
290.434900 0.000745
290.645400 -0.000696
290.855900 -0.000278
291.066500 -0.000855
291.277000 -0.000580
291.487500 0.000437
291.698100 -0.000337
291.908700 0.000271
292.119300 -0.001353
292.329900 0.000285
292.540500 -0.000651
292.751100 -0.000091
292.961800 0.000696
293.172400 -0.001248
293.383100 0.000609
293.593800 -0.000865
293.804500 -0.000106
294.015200 0.000110
294.226000 0.000714
294.436700 0.000337
294.647500 -0.000021
294.858200 -0.000397
295.069000 -0.000851
295.279800 -0.000281
295.490600 0.000757
295.701500 -0.000172
295.912300 -0.000989
296.123200 -0.001829
296.334000 -0.000717
296.544900 -0.001627
296.755800 -0.001554
296.966700 -0.000854
297.177700 -0.000809
297.388600 -0.000618
297.599500 -0.000619
297.810500 -0.000468
298.021500 -0.002560
298.232500 -0.001259
298.443500 -0.000032
298.654500 -0.000960
298.865600 -0.001136
299.076600 -0.000155
299.287700 0.000309
299.498800 -0.000495
299.709900 -0.000548
299.921000 -0.001776
300.132100 -0.001462
300.343200 -0.000488
300.554400 -0.001027
300.765500 -0.000690
300.976700 -0.000155
301.187900 -0.000537
301.399100 -0.000661
301.610300 -0.000577
301.821500 -0.001799
302.032800 -0.000016
302.244100 -0.001052
302.455300 -0.000651
302.666600 -0.000886
302.877900 -0.000942
303.089200 -0.000028
303.300600 -0.000436
303.511900 -0.000348
303.723300 -0.000738
303.934600 -0.000314
304.146000 0.000735
304.357400 -0.001576
304.568800 -0.000714
304.780300 -0.001518
304.991700 0.000337
305.203100 -0.000866
305.414600 -0.000879
305.626100 0.000243
305.837600 -0.000995
306.049100 -0.000481
306.260600 -0.000545
306.472200 -0.000306
306.683700 -0.000753
306.895300 0.000064
307.106900 -0.001399
307.318400 -0.000855
307.530100 -0.000770
307.741700 -0.000334
307.953300 -0.001871
308.165000 -0.000446
308.376600 -0.001501
308.588300 -0.001406
308.800000 0.000448
309.011700 -0.001483
309.223400 -0.001304
309.435100 -0.000567
309.646900 -0.000759
309.858600 -0.000723
310.070400 -0.000541
310.282200 0.001171
310.494000 -0.001638
310.705800 -0.001132
310.917600 -0.000113
311.129500 -0.001413
311.341300 -0.001912
311.553200 -0.001455
311.765100 -0.000650
311.977000 -0.001941
312.188900 -0.000612
312.400800 -0.001302
312.612700 -0.000710
312.824700 -0.002567
313.036600 -0.001235
313.248600 -0.001307
313.460600 -0.000812
313.672600 -0.001993
313.884600 -0.001575
314.096700 -0.001140
314.308700 -0.002384
314.520800 -0.000545
314.732800 -0.001533
314.944900 -0.001488
315.157000 -0.002042
315.369200 -0.000841
315.581300 -0.000257
315.793400 0.000355
316.005600 -0.000956
316.217700 -0.001582
316.429900 -0.003347
316.642100 -0.001673
316.854300 -0.000590
317.066600 -0.002643
317.278800 -0.002138
317.491100 -0.001356
317.703300 -0.001842
317.915600 -0.002088
318.127900 -0.002358
318.340200 -0.001959
318.552500 -0.001867
318.764900 -0.001065
318.977200 -0.001884
319.189600 -0.001160
319.401900 -0.002313
319.614300 -0.001522
319.826700 -0.001314
320.039200 -0.002303
320.251600 -0.001881
320.464000 -0.002503
320.676500 -0.001022
320.889000 -0.000014
321.101400 -0.001540
321.313900 -0.001744
321.526500 -0.002439
321.739000 -0.002953
321.951500 -0.002792
322.164100 -0.001677
322.376600 -0.001793
322.589200 -0.002380
322.801800 -0.001884
323.014400 -0.001730
323.227000 -0.001536
323.439700 -0.002706
323.652300 -0.002309
323.865000 -0.002704
324.077700 -0.003302
324.290400 -0.001709
324.503100 -0.001677
324.715800 -0.002771
324.928500 -0.002753
325.141200 -0.002644
325.354000 -0.003606
325.566800 -0.002317
325.779600 -0.002402
325.992400 -0.001688
326.205200 -0.003231
326.418000 -0.002647
326.630800 -0.003741
326.843700 -0.004707
327.056600 -0.002229
327.269400 -0.002510
327.482300 -0.002669
327.695200 -0.001852
327.908200 -0.003030
328.121100 -0.002390
328.334000 -0.003480
328.547000 -0.004828
328.760000 -0.003094
328.973000 -0.003803
329.186000 -0.002693
329.399000 -0.002641
329.612000 -0.004440
329.825100 -0.002187
330.038100 -0.002576
330.251200 -0.003019
330.464300 -0.004536
330.677400 -0.003254
330.890500 -0.005220
331.103600 -0.003344
331.316700 -0.003917
331.529900 -0.004191
331.743100 -0.003256
331.956200 -0.004779
332.169400 -0.003421
332.382600 -0.003138
332.595900 -0.004895
332.809100 -0.004036
333.022300 -0.003185
333.235600 -0.004071
333.448900 -0.003913
333.662200 -0.003312
333.875500 -0.003966
334.088800 -0.003449
334.302100 -0.005323
334.515400 -0.004152
334.728800 -0.004268
334.942200 -0.003627
335.155500 -0.003315
335.368900 -0.006357
335.582300 -0.003491
335.795800 -0.004109
336.009200 -0.005744
336.222700 -0.004915
336.436100 -0.004696
336.649600 -0.005917
336.863100 -0.004542
337.076600 -0.006803
337.290100 -0.005221
337.503600 -0.004078
337.717200 -0.006578
337.930700 -0.005868
338.144300 -0.005481
338.357900 -0.004332
338.571500 -0.004588
338.785100 -0.005060
338.998700 -0.005215
339.212400 -0.005815
339.426000 -0.004173
339.639700 -0.005137
339.853300 -0.005305
340.067000 -0.005109
340.280700 -0.005228
340.494500 -0.006213
340.708200 -0.004282
340.921900 -0.006539
341.135700 -0.004222
341.349500 -0.005277
341.563300 -0.005034
341.777100 -0.006336
341.990900 -0.006283
342.204700 -0.006543
342.418500 -0.006714
342.632400 -0.006638
342.846300 -0.005699
343.060100 -0.005182
343.274000 -0.005907
343.487900 -0.006694
343.701900 -0.005723
343.915800 -0.005987
344.129700 -0.006705
344.343700 -0.006529
344.557700 -0.007414
344.771700 -0.005823
344.985700 -0.007203
345.199700 -0.006392
345.413700 -0.008055
345.627700 -0.006266
345.841800 -0.007074
346.055900 -0.007094
346.269900 -0.006761
346.484000 -0.008428
346.698100 -0.007176
346.912300 -0.007067
347.126400 -0.007488
347.340600 -0.007601
347.554700 -0.006999
347.768900 -0.008137
347.983100 -0.007805
348.197300 -0.008055
348.411500 -0.007598
348.625700 -0.007530
348.840000 -0.007521
349.054200 -0.008108
349.268500 -0.009159
349.482800 -0.007421
349.697100 -0.007459
349.911400 -0.007678
350.125700 -0.007805
350.340000 -0.007911
350.554400 -0.008533
350.768700 -0.008846
350.983100 -0.007857
351.197500 -0.007351
351.411900 -0.008983
351.626300 -0.009024
351.840700 -0.009363
352.055200 -0.008603
352.269600 -0.008050
352.484100 -0.008905
352.698600 -0.008455
352.913100 -0.007819
353.127600 -0.008565
353.342100 -0.009106
353.556600 -0.009172
353.771200 -0.010087
353.985800 -0.007675
354.200300 -0.007857
354.414900 -0.009148
354.629500 -0.007600
354.844100 -0.009866
355.058800 -0.008954
355.273400 -0.008922
355.488100 -0.009419
355.702700 -0.008972
355.917400 -0.008276
356.132100 -0.009875
356.346800 -0.009611
356.561500 -0.009591
356.776300 -0.009458
356.991000 -0.009158
357.205800 -0.009813
357.420600 -0.009180
357.635300 -0.009043
357.850100 -0.010034
358.065000 -0.010298
358.279800 -0.008616
358.494600 -0.009566
358.709500 -0.009116
358.924300 -0.008983
359.139200 -0.010597
359.354100 -0.009932
359.569000 -0.010052
359.783900 -0.009208
359.998900 -0.009000
360.213800 -0.010889
360.428800 -0.011507
360.643800 -0.009081
360.858700 -0.008574
361.073700 -0.011202
361.288800 -0.010221
361.503800 -0.010449
361.718800 -0.008247
361.933900 -0.010002
362.148900 -0.009767
362.364000 -0.009432
362.579100 -0.010709
362.794200 -0.009686
363.009300 -0.011589
363.224500 -0.011199
363.439600 -0.010501
363.654800 -0.010125
363.869900 -0.010329
364.085100 -0.010445
364.300300 -0.009585
364.515500 -0.012038
364.730800 -0.011518
364.946000 -0.011559
365.161200 -0.010463
365.376500 -0.012829
365.591800 -0.011039
365.807100 -0.009711
366.022400 -0.010139
366.237700 -0.012119
366.453000 -0.013276
366.668400 -0.011817
366.883700 -0.011391
367.099100 -0.011560
367.314500 -0.011911
367.529900 -0.013171
367.745300 -0.012906
367.960700 -0.012176
368.176100 -0.011282
368.391600 -0.012260
368.607000 -0.013051
368.822500 -0.011662
369.038000 -0.013642
369.253500 -0.013090
369.469000 -0.012779
369.684500 -0.013402
369.900100 -0.014133
370.115600 -0.011183
370.331200 -0.012552
370.546800 -0.012295
370.762400 -0.012843
370.978000 -0.012594
371.193600 -0.011967
371.409200 -0.012967
371.624900 -0.013623
371.840500 -0.015122
372.056200 -0.012417
372.271900 -0.011725
372.487600 -0.014147
372.703300 -0.012773
372.919000 -0.011823
373.134800 -0.012728
373.350500 -0.012045
373.566300 -0.013204
373.782000 -0.012533
373.997800 -0.013807
374.213600 -0.013022
374.429400 -0.013637
374.645300 -0.013957
374.861100 -0.013212
375.077000 -0.014260
375.292800 -0.012287
375.508700 -0.013871
375.724600 -0.014668
375.940500 -0.014182
376.156400 -0.014970
376.372400 -0.015141
376.588300 -0.013868
376.804300 -0.014484
377.020300 -0.015500
377.236200 -0.016048
377.452200 -0.016176
377.668200 -0.015912
377.884300 -0.014691
378.100300 -0.014185
378.316400 -0.016843
378.532400 -0.015032
378.748500 -0.016888
378.964600 -0.016520
379.180700 -0.016315
379.396800 -0.016195
379.612900 -0.014786
379.829100 -0.014683
380.045200 -0.014170
380.261400 -0.015830
380.477600 -0.015162
380.693800 -0.013505
380.910000 -0.016409
381.126200 -0.012707
381.342400 -0.014775
381.558700 -0.011690
381.774900 -0.012102
381.991200 -0.013191
382.207500 -0.013551
382.423800 -0.013729
382.640100 -0.013166
382.856400 -0.012909
383.072800 -0.012487
383.289100 -0.013180
383.505500 -0.012480
383.721900 -0.012657
383.938200 -0.011880
384.154600 -0.013515
384.371100 -0.012414
384.587500 -0.012769
384.803900 -0.012537
385.020400 -0.011520
385.236800 -0.011513
385.453300 -0.012354
385.669800 -0.011456
385.886300 -0.011415
386.102800 -0.011811
386.319400 -0.009421
386.535900 -0.010616
386.752500 -0.009916
386.969000 -0.009948
387.185600 -0.009575
387.402200 -0.011593
387.618800 -0.010826
387.835500 -0.009633
388.052100 -0.012057
388.268700 -0.010651
388.485400 -0.009096
388.702100 -0.009602
388.918800 -0.008708
389.135500 -0.010556
389.352200 -0.008895
389.568900 -0.008649
389.785600 -0.008272
390.002400 -0.008481
390.219200 -0.007637
390.435900 -0.009416
390.652700 -0.007900
390.869500 -0.009362
391.086300 -0.007892
391.303200 -0.008012
391.520000 -0.007772
391.736900 -0.008079
391.953700 -0.007259
392.170600 -0.007868
392.387500 -0.008233
392.604400 -0.009272
392.821300 -0.006277
393.038300 -0.007186
393.255200 -0.008952
393.472200 -0.007174
393.689100 -0.007549
393.906100 -0.006622
394.123100 -0.005848
394.340100 -0.007198
394.557200 -0.006227
394.774200 -0.005834
394.991200 -0.004546
395.208300 -0.006724
395.425400 -0.005108
395.642500 -0.006477
395.859600 -0.006540
396.076700 -0.006126
396.293800 -0.005542
396.510900 -0.006333
396.728100 -0.006634
396.945300 -0.008048
397.162400 -0.006258
397.379600 -0.005930
397.596800 -0.005948
397.814000 -0.005305
398.031300 -0.007268
398.248500 -0.006513
398.465800 -0.005700
398.683000 -0.004937
398.900300 -0.005193
399.117600 -0.006200
