# Wavelength (nm)	Intensity (a.u.)
197.7802	0.001570
197.9842	-0.000671
198.1882	0.000048
198.3922	0.001485
198.5963	0.000576
198.8003	-0.001115
199.0044	0.000492
199.2085	0.001041
199.4126	0.002416
199.6168	-0.001052
199.8209	0.001612
200.0251	0.000745
200.2292	0.000449
200.4334	0.001359
200.6376	0.001591
200.8418	-0.000206
201.0461	-0.000946
201.2503	0.000640
201.4546	0.000745
201.6589	-0.001263
201.8631	0.001507
202.0674	-0.000079
202.2718	0.000259
202.4761	-0.000100
202.6805	-0.000270
202.8848	0.000576
203.0892	-0.000185
203.2936	0.001739
203.4980	0.000999
203.7024	-0.000058
203.9069	0.001443
204.1113	0.000322
204.3158	-0.000904
204.5203	0.000196
204.7248	0.000470
204.9293	-0.000862
205.1338	0.001443
205.3384	0.000640
205.5430	0.000407
205.7475	0.000280
205.9521	-0.000058
206.1567	0.000597
206.3614	-0.000439
206.5660	0.001401
206.7706	0.001422
206.9753	0.000344
207.1800	0.000576
207.3847	-0.000798
207.5894	-0.000439
207.7941	-0.000016
207.9989	0.000196
208.2036	0.000745
208.4084	0.002606
208.6132	-0.000629
208.8180	-0.000671
209.0228	-0.000375
209.2276	0.000365
209.4325	-0.000629
209.6373	-0.000143
209.8422	0.000597
210.0471	-0.000122
210.2520	0.000132
210.4569	0.001824
210.6618	-0.000396
210.8668	0.001041
211.0718	0.000576
211.2767	0.002416
211.4817	0.002416
211.6867	-0.000523
211.8918	-0.000418
212.0968	0.001528
212.3018	0.000682
212.5069	0.000238
212.7120	0.001929
212.9171	0.001274
213.1222	-0.001327
213.3273	0.001232
213.5325	0.000576
213.7376	0.000132
213.9428	0.000534
214.1480	0.001570
214.3532	0.000174
214.5584	0.001549
214.7636	0.000407
214.9689	0.000428
215.1741	0.000386
215.3794	-0.000100
215.5847	-0.000714
215.7900	-0.000375
215.9953	-0.000333
216.2007	0.000893
216.4060	-0.000502
216.6114	0.002204
216.8168	-0.000100
217.0222	-0.000671
217.2276	-0.000100
217.4330	0.000767
217.6384	-0.000904
217.8439	0.002120
218.0494	0.000767
218.2548	0.002226
218.4603	-0.000185
218.6659	0.001337
218.8714	0.002056
219.0769	0.001105
219.2825	-0.000671
219.4881	0.000217
219.6936	-0.001390
219.8992	0.002183
220.1049	-0.000502
220.3105	0.000492
220.5161	-0.000735
220.7218	0.000703
220.9275	0.000048
221.1332	-0.000227
221.3389	0.001359
221.5446	-0.000079
221.7503	0.000238
221.9561	-0.000206
222.1618	-0.001411
222.3676	0.000492
222.5734	-0.001538
222.7792	0.001041
222.9850	0.001655
223.1909	0.001929
223.3967	0.000915
223.6026	-0.000185
223.8085	0.001760
224.0144	-0.000904
224.2203	0.000999
224.4262	-0.000481
224.6322	0.000407
224.8381	0.000217
225.0441	-0.000798
225.2501	0.001274
225.4561	0.000640
225.6621	0.001676
225.8681	-0.000122
226.0742	0.000851
226.2802	-0.000629
226.4863	-0.000650
226.6924	0.000745
226.8985	0.002754
227.1046	-0.000819
227.3107	-0.001221
227.5169	-0.000333
227.7230	0.001168
227.9292	0.000048
228.1354	0.000280
228.3416	0.000280
228.5478	0.001824
228.7541	0.000301
228.9603	0.001612
229.1666	0.000174
229.3729	0.000344
229.5791	-0.000523
229.7855	-0.000164
229.9918	-0.000016
230.1981	-0.000544
230.4045	-0.000248
230.6108	0.000280
230.8172	0.000682
231.0236	0.002543
231.2300	-0.000735
231.4364	-0.000100
231.6429	-0.000354
231.8493	0.001528
232.0558	-0.000671
232.2623	-0.000016
232.4688	-0.000841
232.6753	-0.001115
232.8818	0.000069
233.0884	0.002247
233.2949	0.001211
233.5015	0.000301
233.7081	-0.000227
233.9147	0.001189
234.1213	0.000978
234.3279	0.001401
234.5346	-0.000312
234.7413	0.001020
234.9479	-0.000037
235.1546	0.000851
235.3613	-0.000418
235.5680	0.001168
235.7748	0.000196
235.9815	0.000280
236.1883	0.000217
236.3951	0.001105
236.6018	0.000893
236.8087	0.002120
237.0155	0.001274
237.2223	-0.000608
237.4292	0.000661
237.6360	-0.000544
237.8429	-0.000100
238.0498	0.000957
238.2567	-0.000862
238.4636	0.001168
238.6706	-0.000418
238.8775	-0.000016
239.0845	0.000069
239.2915	0.003008
239.4985	-0.000587
239.7055	0.003198
239.9125	-0.000418
240.1195	0.000936
240.3266	-0.000164
240.5337	-0.000883
240.7407	0.001041
240.9478	-0.000100
241.1549	-0.000333
241.3621	0.001485
241.5692	0.000069
241.7764	0.001718
241.9835	-0.000333
242.1907	0.001232
242.3979	-0.002067
242.6051	0.001739
242.8124	0.000365
243.0196	0.000597
243.2269	0.001168
243.4341	0.000915
243.6414	-0.001581
243.8487	0.001211
244.0560	-0.001031
244.2634	0.001972
244.4707	-0.001115
244.6781	-0.000016
244.8854	0.000809
245.0928	-0.000819
245.3002	-0.000143
245.5076	0.000809
245.7151	-0.001052
245.9225	-0.000777
246.1300	-0.000079
246.3375	0.001528
246.5449	-0.001010
246.7524	0.001845
246.9600	0.000745
247.1675	0.000132
247.3750	-0.000079
247.5826	0.001760
247.7902	-0.000227
247.9978	0.001380
248.2054	-0.000904
248.4130	0.001041
248.6206	0.001211
248.8283	0.000513
249.0359	0.000915
249.2436	0.002056
249.4513	0.000534
249.6590	0.001337
249.8667	0.000999
250.0745	0.000682
250.2822	-0.000735
250.4900	-0.000756
250.6978	-0.000566
250.9056	0.000238
251.1134	0.000555
251.3212	0.001887
251.5290	-0.000164
251.7369	-0.000100
251.9447	0.000090
252.1526	0.000788
252.3605	-0.000100
252.5684	0.001612
252.7763	-0.000143
252.9843	-0.000566
253.1922	-0.000375
253.4002	0.001211
253.6082	-0.000629
253.8162	0.000407
254.0242	-0.000819
254.2322	0.000745
254.4402	-0.000841
254.6483	0.000851
254.8564	-0.000904
255.0644	0.001105
255.2725	0.000069
255.4806	-0.000079
255.6888	-0.001200
255.8969	0.001041
256.1051	0.001612
256.3132	0.000618
256.5214	0.002944
256.7296	0.001147
256.9378	-0.000714
257.1460	0.002014
257.3543	-0.000777
257.5625	0.000407
257.7708	-0.000418
257.9791	-0.001602
258.1874	-0.000164
258.3957	0.000153
258.6040	-0.000291
258.8124	0.001760
259.0207	-0.000841
259.2291	0.001084
259.4375	0.000111
259.6459	0.001295
259.8543	-0.000185
260.0627	0.001485
260.2711	-0.000693
260.4796	0.002120
260.6881	0.000830
260.8965	0.000767
261.1050	0.001126
261.3135	0.000428
261.5221	0.001084
261.7306	0.001528
261.9392	0.000893
262.1477	0.001612
262.3563	0.001549
262.5649	-0.000016
262.7735	-0.000312
262.9822	0.001337
263.1908	0.000661
263.3995	0.001041
263.6081	0.000322
263.8168	-0.001433
264.0255	-0.001306
264.2342	0.000830
264.4429	-0.001115
264.6517	0.000153
264.8604	-0.000418
265.0692	0.000576
265.2780	-0.000523
265.4868	-0.000523
265.6956	-0.000777
265.9044	0.003917
266.1133	0.000957
266.3221	0.000259
266.5310	-0.000058
266.7399	0.000618
266.9488	0.000767
267.1577	0.000090
267.3666	-0.000756
267.5755	0.001295
267.7845	0.000851
267.9935	0.000217
268.2024	0.000957
268.4114	-0.000185
268.6205	-0.001834
268.8295	-0.001179
269.0385	-0.000883
269.2476	0.001422
269.4566	0.000344
269.6657	0.000301
269.8748	-0.000333
270.0839	0.001211
270.2931	-0.000544
270.5022	0.000597
270.7114	0.000555
270.9205	-0.000883
271.1297	-0.000375
271.3389	-0.000354
271.5481	-0.000418
271.7573	0.000618
271.9666	0.001253
272.1758	-0.000566
272.3851	-0.001581
272.5944	0.000597
272.8037	0.000640
273.0130	-0.001285
273.2223	0.001781
273.4316	-0.000798
273.6410	-0.000735
273.8504	0.001168
274.0597	0.000618
274.2691	-0.000270
274.4785	-0.000100
274.6880	0.000238
274.8974	0.000576
275.1069	0.001084
275.3163	0.001105
275.5258	-0.001581
275.7353	0.000280
275.9448	0.001168
276.1543	0.001020
276.3639	-0.001369
276.5734	-0.000122
276.7830	0.000872
276.9926	0.000238
277.2022	-0.000185
277.4118	0.000090
277.6214	-0.000523
277.8310	-0.000523
278.0407	0.000428
278.2503	0.000640
278.4600	-0.001073
278.6697	0.000576
278.8794	0.000767
279.0891	-0.000375
279.2989	0.001633
279.5086	-0.000693
279.7184	0.001084
279.9281	-0.000122
280.1379	0.001359
280.3477	0.000534
280.5576	-0.000566
280.7674	-0.000735
280.9772	-0.000312
281.1871	0.000196
281.3970	-0.000270
281.6069	-0.000227
281.8168	0.001591
282.0267	-0.001834
282.2366	0.000322
282.4466	0.000196
282.6565	0.000005
282.8665	0.000132
283.0765	0.000830
283.2865	0.000957
283.4965	0.001443
283.7065	0.000851
283.9166	-0.000841
284.1266	-0.001411
284.3367	0.000576
284.5468	-0.000185
284.7569	-0.000375
284.9670	-0.000185
285.1771	0.001316
285.3873	-0.000354
285.5974	0.000936
285.8076	0.001866
286.0178	0.000534
286.2280	0.001359
286.4382	0.001633
286.6484	-0.001306
286.8587	0.002056
287.0689	0.000132
287.2792	0.001739
287.4895	0.000618
287.6998	0.000745
287.9101	-0.001242
288.1204	0.000745
288.3308	-0.000227
288.5411	0.000492
288.7515	-0.000312
288.9619	0.000301
289.1723	0.001274
289.3827	0.002035
289.5931	-0.000693
289.8035	-0.000481
290.0140	-0.000671
290.2245	0.000872
290.4349	0.001316
290.6454	0.000322
290.8559	-0.000841
291.0665	0.002374
291.2770	0.001063
291.4875	-0.000100
291.6981	0.001168
291.9087	-0.000587
292.1193	0.000344
292.3299	0.000576
292.5405	0.001359
292.7511	-0.000312
292.9618	0.000724
293.1724	0.000957
293.3831	0.001464
293.5938	-0.000418
293.8045	0.000217
294.0152	0.001316
294.2260	-0.000164
294.4367	-0.000418
294.6475	-0.000671
294.8582	-0.000143
295.0690	0.000872
295.2798	0.000597
295.4906	-0.000079
295.7015	-0.000883
295.9123	-0.001369
296.1232	0.000238
296.3340	0.000788
296.5449	-0.001094
296.7558	-0.000587
296.9667	0.001232
297.1777	0.000048
297.3886	0.000449
297.5995	0.001507
297.8105	0.000999
298.0215	0.001274
298.2325	-0.001792
298.4435	0.000111
298.6545	0.000809
298.8656	-0.000439
299.0766	-0.000671
299.2877	-0.000544
299.4988	0.000640
299.7099	0.000428
299.9210	0.000090
300.1321	-0.000037
300.3432	0.002056
300.5544	0.000597
300.7655	-0.000375
300.9767	0.001084
301.1879	0.000978
301.3991	-0.000270
301.6103	-0.000735
301.8215	0.001337
302.0328	0.002078
302.2441	-0.000671
302.4553	0.001380
302.6666	0.000745
302.8779	0.000322
303.0892	0.000449
303.3006	0.000851
303.5119	0.000153
303.7233	0.001295
303.9346	0.000640
304.1460	0.002141
304.3574	0.000428
304.5688	0.000449
304.7803	0.000449
304.9917	0.001105
305.2031	-0.001158
305.4146	0.000555
305.6261	0.000788
305.8376	0.000153
306.0491	0.000470
306.2606	0.000470
306.4722	0.000555
306.6837	0.001147
306.8953	0.000851
307.1069	-0.001411
307.3184	-0.001538
307.5301	0.000703
307.7417	-0.001411
307.9533	0.000597
308.1650	0.000872
308.3766	0.001359
308.5883	0.000322
308.8000	0.001253
309.0117	0.001211
309.2234	0.000174
309.4351	-0.000544
309.6469	0.000026
309.8586	0.000661
310.0704	0.001274
310.2822	-0.000227
310.4940	0.001084
310.7058	-0.001961
310.9176	-0.001940
311.1295	-0.000164
311.3413	0.001697
311.5532	-0.000206
311.7651	-0.000460
311.9770	-0.000629
312.1889	0.001591
312.4008	-0.001581
312.6127	0.000280
312.8247	-0.000248
313.0366	0.000005
313.2486	0.000153
313.4606	0.001063
313.6726	-0.000650
313.8846	0.000957
314.0967	-0.000185
314.3087	-0.001285
314.5208	0.000090
314.7328	-0.000058
314.9449	-0.000735
315.1570	0.000005
315.3692	0.000618
315.5813	0.001464
315.7934	0.001041
316.0056	-0.000439
316.2177	-0.001496
316.4299	0.001845
316.6421	0.000492
316.8543	-0.000883
317.0666	-0.000798
317.2788	-0.000608
317.4911	-0.000100
317.7033	-0.001559
317.9156	0.000534
318.1279	0.000724
318.3402	-0.000502
318.5525	-0.000079
318.7649	-0.000904
318.9772	-0.001137
319.1896	0.000111
319.4019	-0.000671
319.6143	0.000661
319.8267	0.001824
320.0392	-0.001559
320.2516	0.000344
320.4640	-0.000946
320.6765	-0.000333
320.8890	0.000428
321.1014	0.000238
321.3139	0.000090
321.5265	0.001803
321.7390	0.000745
321.9515	0.000555
322.1641	-0.001834
322.3766	0.001359
322.5892	0.000830
322.8018	0.000449
323.0144	0.000661
323.2270	0.001760
323.4397	-0.001158
323.6523	-0.000037
323.8650	0.001147
324.0777	-0.000481
324.2904	0.000936
324.5031	-0.000418
324.7158	0.001126
324.9285	0.000174
325.1412	0.000322
325.3540	-0.000354
325.5668	-0.001348
325.7796	-0.000016
325.9924	0.000196
326.2052	0.000597
326.4180	0.000788
326.6308	0.000957
326.8437	-0.000819
327.0566	-0.000777
327.2694	0.000999
327.4823	-0.001475
327.6952	0.001760
327.9082	0.002796
328.1211	-0.000016
328.3340	0.000069
328.5470	-0.001158
328.7600	-0.001390
328.9730	0.000048
329.1860	0.001972
329.3990	0.000428
329.6120	-0.000967
329.8251	0.000872
330.0381	0.002733
330.2512	0.000724
330.4643	0.000386
330.6774	-0.000925
330.8905	-0.000375
331.1036	-0.000354
331.3167	-0.000608
331.5299	0.000259
331.7431	0.000174
331.9562	0.000703
332.1694	0.000788
332.3826	-0.000566
332.5959	0.001084
332.8091	-0.000883
333.0223	0.000661
333.2356	0.001760
333.4489	-0.000100
333.6622	-0.000925
333.8755	0.000407
334.0888	0.000640
334.3021	0.000301
334.5154	-0.000079
334.7288	0.000301
334.9422	0.000259
335.1555	0.001063
335.3689	0.000344
335.5823	0.001020
335.7958	0.000957
336.0092	-0.000291
336.2227	0.000174
336.4361	0.000724
336.6496	-0.000396
336.8631	0.000830
337.0766	0.000238
337.2901	0.001274
337.5036	-0.000544
337.7172	-0.000396
337.9307	-0.000629
338.1443	0.001528
338.3579	-0.000925
338.5715	0.000576
338.7851	0.001041
338.9987	-0.000756
339.2124	-0.001221
339.4260	-0.000100
339.6397	-0.001559
339.8533	-0.000206
340.0670	-0.000883
340.2807	0.000682
340.4945	0.000322
340.7082	-0.000100
340.9219	-0.001094
341.1357	0.000174
341.3495	-0.001221
341.5633	0.000259
341.7771	0.000217
341.9909	0.002585
342.2047	-0.000693
342.4185	-0.000650
342.6324	-0.000164
342.8463	-0.000587
343.0601	0.000069
343.2740	0.000026
343.4879	0.000026
343.7019	0.001232
343.9158	0.000132
344.1297	-0.000058
344.3437	-0.001179
344.5577	0.000153
344.7717	0.000344
344.9857	0.001951
345.1997	-0.000227
345.4137	0.001020
345.6277	0.001422
345.8418	-0.001200
346.0559	0.001105
346.2699	-0.001052
346.4840	0.000893
346.6981	0.000851
346.9123	0.000555
347.1264	0.000449
347.3406	-0.001602
347.5547	0.001887
347.7689	0.000915
347.9831	-0.000566
348.1973	0.000767
348.4115	0.003050
348.6257	-0.000756
348.8400	0.000915
349.0542	-0.000946
349.2685	0.000111
349.4828	0.000872
349.6971	0.000386
349.9114	-0.001665
350.1257	0.000830
350.3400	0.002035
350.5544	0.001443
350.7687	0.000238
350.9831	-0.000735
351.1975	0.000915
351.4119	0.000576
351.6263	0.000322
351.8407	-0.000206
352.0552	0.000026
352.2696	-0.000523
352.4841	0.000597
352.6986	0.001189
352.9131	-0.000058
353.1276	0.001380
353.3421	-0.000587
353.5566	0.000513
353.7712	-0.000819
353.9858	-0.000227
354.2003	0.000576
354.4149	0.000449
354.6295	0.000217
354.8441	0.000153
355.0588	0.001507
355.2734	-0.000122
355.4881	0.000132
355.7027	0.000449
355.9174	0.000830
356.1321	-0.000946
356.3468	0.001380
356.5615	-0.000079
356.7763	-0.000100
356.9910	0.001485
357.2058	0.000999
357.4206	0.001084
357.6353	0.000915
357.8501	0.001274
358.0650	0.000111
358.2798	0.001084
358.4946	0.000407
358.7095	-0.000989
358.9243	0.000661
359.1392	-0.000291
359.3541	-0.000946
359.5690	0.000915
359.7839	-0.000523
359.9989	0.001570
360.2138	0.001232
360.4288	-0.000164
360.6438	0.000005
360.8587	0.000978
361.0737	-0.001390
361.2888	0.000745
361.5038	0.000069
361.7188	-0.000481
361.9339	-0.000037
362.1489	0.000492
362.3640	0.000174
362.5791	0.001570
362.7942	0.001168
363.0093	0.000872
363.2245	0.001337
363.4396	0.000915
363.6548	-0.000904
363.8699	0.001422
364.0851	0.001824
364.3003	0.002183
364.5155	-0.001179
364.7308	0.001063
364.9460	-0.000396
365.1612	-0.000291
365.3765	-0.000333
365.5918	-0.000396
365.8071	-0.000375
366.0224	0.000724
366.2377	-0.000735
366.4530	0.000703
366.6684	-0.001454
366.8837	0.000111
367.0991	-0.001052
367.3145	0.000238
367.5299	-0.000143
367.7453	-0.000587
367.9607	-0.000566
368.1761	0.001316
368.3916	0.000640
368.6070	0.000470
368.8225	-0.002152
369.0380	-0.000756
369.2535	-0.000671
369.4690	-0.000481
369.6845	0.000217
369.9001	0.002183
370.1156	-0.000058
370.3312	-0.000333
370.5468	-0.000566
370.7624	-0.001369
370.9780	-0.000502
371.1936	0.001845
371.4092	-0.000100
371.6249	0.002078
371.8405	0.000386
372.0562	0.000407
372.2719	-0.000862
372.4876	0.000238
372.7033	0.000153
372.9190	0.000640
373.1348	-0.002025
373.3505	-0.000037
373.5663	0.000090
373.7820	0.001126
373.9978	-0.000418
374.2136	-0.001200
374.4294	-0.000819
374.6453	0.000492
374.8611	-0.001115
375.0770	0.002183
375.2928	0.000597
375.5087	-0.000016
375.7246	0.000407
375.9405	-0.000798
376.1564	0.002522
376.3724	-0.001750
376.5883	-0.000100
376.8043	0.000238
377.0203	-0.001263
377.2362	-0.000270
377.4522	-0.000185
377.6682	0.000153
377.8843	0.001549
378.1003	0.000470
378.3164	-0.001813
378.5324	0.000597
378.7485	0.001401
378.9646	0.001147
379.1807	0.001211
379.3968	0.001274
379.6129	0.000449
379.8291	0.000322
380.0452	-0.002130
380.2614	0.000724
380.4776	-0.000693
380.6938	-0.000967
380.9100	0.001380
381.1262	0.000640
381.3424	0.001126
381.5587	0.000915
381.7749	-0.000206
381.9912	-0.000100
382.2075	0.001422
382.4238	0.001084
382.6401	-0.000312
382.8564	-0.000925
383.0728	0.000492
383.2891	0.000026
383.5055	-0.000608
383.7219	0.000767
383.9382	-0.000291
384.1546	0.000661
384.3711	0.000365
384.5875	0.000365
384.8039	0.000174
385.0204	0.000005
385.2368	0.000132
385.4533	0.000745
385.6698	0.000322
385.8863	-0.001517
386.1028	-0.001707
386.3194	-0.000100
386.5359	-0.000143
386.7525	-0.000058
386.9690	0.001464
387.1856	0.000640
387.4022	-0.000544
387.6188	0.000407
387.8355	-0.000756
388.0521	0.001084
388.2687	-0.001179
388.4854	-0.000333
388.7021	-0.000587
388.9188	0.000682
389.1355	0.001507
389.3522	0.000069
389.5689	-0.000777
389.7856	0.000597
390.0024	0.000048
390.2192	0.000745
390.4359	-0.001729
390.6527	0.000661
390.8695	0.001084
391.0863	-0.000270
391.3032	-0.001919
391.5200	-0.000714
391.7369	-0.001369
391.9537	0.001739
392.1706	-0.000777
392.3875	-0.000354
392.6044	-0.000819
392.8213	0.001274
393.0383	0.000259
393.2552	0.000090
393.4722	0.000767
393.6891	0.000217
393.9061	-0.000883
394.1231	-0.000206
394.3401	-0.001686
394.5572	-0.000227
394.7742	0.000957
394.9912	0.000386
395.2083	-0.001707
395.4254	-0.000481
395.6425	-0.000629
395.8596	0.001676
396.0767	-0.000862
396.2938	-0.000587
396.5109	-0.000714
396.7281	0.000090
396.9453	0.000618
397.1624	0.001464
397.3796	-0.001031
397.5968	0.000872
397.8140	0.000661
398.0313	-0.000418
398.2485	-0.000671
398.4658	0.000893
398.6830	-0.000544
398.9003	-0.000396
399.1176	-0.001179
399.3349	0.001908
399.5522	-0.001665
399.7696	-0.000587
399.9869	-0.000608
400.2043	0.000640
400.4216	-0.000523
400.6390	-0.000608
400.8564	0.000470
401.0738	-0.000756
401.2912	-0.000883
401.5087	0.000957
401.7261	0.000470
401.9436	-0.000206
402.1610	0.000492
402.3785	-0.000481
402.5960	-0.000841
402.8135	-0.000629
403.0310	-0.001242
403.2486	-0.001581
403.4661	-0.001306
403.6837	0.000492
403.9013	0.000492
404.1189	0.001063
404.3365	-0.000143
404.5541	-0.000798
404.7717	-0.001771
404.9893	-0.000523
405.2070	-0.000566
405.4246	0.001464
405.6423	0.000428
405.8600	-0.000566
406.0777	-0.000629
406.2954	0.000005
406.5131	-0.000396
406.7309	-0.000460
406.9486	-0.000206
407.1664	-0.000693
407.3842	-0.000037
407.6020	0.000386
407.8198	-0.000418
408.0376	0.000428
408.2554	0.000280
408.4733	-0.000756
408.6911	0.001612
408.9090	-0.000418
409.1269	-0.000502
409.3448	-0.000819
409.5627	0.000132
409.7806	-0.002574
409.9985	0.001041
410.2165	0.000428
410.4344	0.000196
410.6524	-0.000967
410.8704	0.001380
411.0884	0.000174
411.3064	0.001443
411.5244	0.000724
411.7424	-0.000523
411.9605	-0.000566
412.1785	0.000111
412.3966	0.001380
412.6147	0.000661
412.8328	0.001105
413.0509	-0.000312
413.2690	0.000365
413.4871	0.000851
413.7053	0.000217
413.9234	0.001168
414.1416	-0.000375
414.3598	0.002374
414.5780	0.000301
414.7962	-0.000946
415.0144	0.000978
415.2326	0.000407
415.4509	-0.000185
415.6692	-0.000164
415.8874	0.000365
416.1057	-0.001221
416.3240	-0.000904
416.5423	0.000238
416.7606	-0.001073
416.9790	-0.000777
417.1973	0.001253
417.4157	-0.000671
417.6341	-0.000270
417.8524	-0.000523
418.0708	-0.000354
418.2893	0.001359
418.5077	-0.000862
418.7261	0.000407
418.9446	-0.001538
419.1630	-0.000333
419.3815	0.000365
419.6000	-0.000037
419.8185	-0.001877
420.0370	0.000174
420.2555	0.000999
420.4741	0.000513
420.6926	-0.001454
420.9112	-0.000100
421.1298	-0.001094
421.3483	0.000555
421.5669	-0.000248
421.7856	0.000703
422.0042	0.000365
422.2228	0.000217
422.4415	0.000492
422.6601	0.000259
422.8788	-0.002511
423.0975	-0.000333
423.3162	-0.001940
423.5349	-0.000502
423.7536	-0.000439
423.9724	-0.000122
424.1911	-0.000037
424.4099	0.002437
424.6287	0.000745
424.8475	0.000915
425.0663	0.001084
425.2851	0.001041
425.5039	0.005905
425.7228	0.000682
425.9416	-0.000248
426.1605	-0.001348
426.3793	-0.000566
426.5982	0.001253
426.8171	-0.000396
