# Wavelength (nm)	Intensity (a.u.)
197.7802	0.000549
197.9842	0.001308
198.1882	0.001330
198.3922	0.001330
198.5963	0.001393
198.8003	-0.000739
199.0044	0.001266
199.2085	0.000654
199.4126	0.000823
199.6168	-0.000127
199.8209	0.000654
200.0251	0.000485
200.2292	-0.000485
200.4334	0.001013
200.6376	0.001055
200.8418	0.000232
201.0461	0.002026
201.2503	-0.000591
201.4546	0.001034
201.6589	-0.000211
201.8631	0.003187
202.0674	0.000992
202.2718	0.002110
202.4761	-0.000401
202.6805	0.001899
202.8848	0.000654
203.0892	0.001330
203.2936	0.001076
203.4980	0.001984
203.7024	0.001140
203.9069	-0.000127
204.1113	-0.000274
204.3158	0.001414
204.5203	0.001140
204.7248	0.000317
204.9293	-0.000042
205.1338	-0.000380
205.3384	-0.000612
205.5430	0.001794
205.7475	0.001498
205.9521	0.001372
206.1567	0.000359
206.3614	-0.000317
206.5660	0.001562
206.7706	0.000823
206.9753	0.000718
207.1800	-0.000169
207.3847	0.000718
207.5894	0.001878
207.7941	0.000549
207.9989	0.000675
208.2036	-0.000127
208.4084	0.001541
208.6132	0.001287
208.8180	0.000380
209.0228	0.000106
209.2276	0.000929
209.4325	-0.001224
209.6373	0.001119
209.8422	-0.000907
210.0471	0.000739
210.2520	-0.000464
210.4569	0.001245
210.6618	0.000042
210.8668	0.000401
211.0718	0.000359
211.2767	0.000422
211.4817	0.000464
211.6867	0.002828
211.8918	-0.000464
212.0968	0.000907
212.3018	-0.000253
212.5069	0.000507
212.7120	0.000823
212.9171	-0.000274
213.1222	0.000084
213.3273	0.001203
213.5325	0.001435
213.7376	0.001498
213.9428	0.000929
214.1480	-0.000612
214.3532	-0.000063
214.5584	0.002533
214.7636	0.002153
214.9689	0.001287
215.1741	-0.000401
215.3794	0.000654
215.5847	0.000612
215.7900	0.000549
215.9953	0.001182
216.2007	0.002364
216.4060	0.000211
216.6114	0.001646
216.8168	0.001667
217.0222	0.000570
217.2276	0.000739
217.4330	0.001330
217.6384	-0.000950
217.8439	0.000549
218.0494	0.000021
218.2548	-0.000338
218.4603	0.001794
218.6659	0.002765
218.8714	0.000485
219.0769	0.001055
219.2825	0.001076
219.4881	0.000886
219.6936	0.001625
219.8992	0.000422
220.1049	0.001815
220.3105	0.000274
220.5161	0.001773
220.7218	0.000127
220.9275	0.000485
221.1332	0.001097
221.3389	0.000190
221.5446	0.000823
221.7503	0.001034
221.9561	0.000528
222.1618	0.000865
222.3676	0.001857
222.5734	-0.000464
222.7792	0.000169
222.9850	0.000000
223.1909	-0.000612
223.3967	0.000507
223.6026	0.002659
223.8085	0.000127
224.0144	-0.000485
224.2203	-0.000317
224.4262	0.000612
224.6322	0.001182
224.8381	0.002469
225.0441	0.000992
225.2501	0.000359
225.4561	0.000232
225.6621	0.001836
225.8681	0.000317
226.0742	0.000844
226.2802	0.000000
226.4863	0.001097
226.6924	0.000654
226.8985	0.000464
227.1046	0.000253
227.3107	0.000675
227.5169	0.001667
227.7230	-0.000422
227.9292	0.001140
228.1354	0.001435
228.3416	0.001393
228.5478	0.000823
228.7541	0.001878
228.9603	0.000570
229.1666	0.000823
229.3729	0.002828
229.5791	0.001562
229.7855	0.000528
229.9918	0.001583
230.1981	0.000886
230.4045	0.000317
230.6108	0.002174
230.8172	0.000886
231.0236	0.000907
231.2300	0.000021
231.4364	0.001899
231.6429	0.000971
231.8493	0.000781
232.0558	0.001330
232.2623	0.000190
232.4688	0.000485
232.6753	-0.000063
232.8818	0.000169
233.0884	0.001076
233.2949	0.000760
233.5015	0.001182
233.7081	0.000781
233.9147	0.000929
234.1213	0.000190
234.3279	0.000190
234.5346	0.000633
234.7413	0.000359
234.9479	0.001055
235.1546	0.000929
235.3613	0.001203
235.5680	0.000253
235.7748	0.000485
235.9815	0.001034
236.1883	0.001709
236.3951	0.000295
236.6018	-0.000211
236.8087	0.001140
237.0155	0.001182
237.2223	0.001266
237.4292	-0.000464
237.6360	0.000485
237.8429	-0.000084
238.0498	0.001393
238.2567	0.000042
238.4636	0.000907
238.6706	-0.000127
238.8775	0.001203
239.0845	0.000570
239.2915	0.000950
239.4985	-0.000485
239.7055	0.001119
239.9125	0.001604
240.1195	0.000696
240.3266	0.000633
240.5337	0.001773
240.7407	0.001055
240.9478	0.002174
241.1549	0.000760
241.3621	0.000253
241.5692	0.000317
241.7764	0.001815
241.9835	-0.000190
242.1907	0.001119
242.3979	0.000591
242.6051	0.002279
242.8124	-0.000507
243.0196	-0.000084
243.2269	0.001330
243.4341	0.001773
243.6414	0.001055
243.8487	0.002047
244.0560	0.001773
244.2634	0.001709
244.4707	0.000148
244.6781	0.000929
244.8854	0.000443
245.0928	0.001899
245.3002	-0.001119
245.5076	0.000317
245.7151	-0.000485
245.9225	0.001667
246.1300	0.001140
246.3375	-0.000654
246.5449	0.001182
246.7524	0.001287
246.9600	0.000865
247.1675	0.000359
247.3750	-0.000570
247.5826	0.000485
247.7902	0.000907
247.9978	0.001942
248.2054	0.001625
248.4130	0.000739
248.6206	-0.000549
248.8283	0.001393
249.0359	0.000950
249.2436	-0.000021
249.4513	0.000211
249.6590	0.001034
249.8667	-0.000021
250.0745	0.000106
250.2822	0.000295
250.4900	-0.000359
250.6978	0.001372
250.9056	0.001266
251.1134	-0.000633
251.3212	0.001034
251.5290	0.000823
251.7369	0.001055
251.9447	-0.000612
252.1526	0.001097
252.3605	0.000274
252.5684	0.000633
252.7763	0.000718
252.9843	0.000739
253.1922	0.000528
253.4002	0.000127
253.6082	0.000464
253.8162	0.001224
254.0242	-0.000591
254.2322	0.000696
254.4402	-0.000127
254.6483	0.001942
254.8564	0.002448
255.0644	0.000823
255.2725	-0.001034
255.4806	0.000380
255.6888	-0.000190
255.8969	0.002174
256.1051	0.000907
256.3132	0.001435
256.5214	0.000295
256.7296	0.001203
256.9378	0.001351
257.1460	0.000929
257.3543	0.000401
257.5625	0.000907
257.7708	0.000253
257.9791	-0.000253
258.1874	0.000570
258.3957	0.002068
258.6040	0.000591
258.8124	-0.000359
259.0207	0.000507
259.2291	0.001119
259.4375	-0.000633
259.6459	0.001097
259.8543	-0.000021
260.0627	0.000971
260.2711	0.000169
260.4796	0.002554
260.6881	-0.000380
260.8965	-0.000106
261.1050	0.000507
261.3135	0.002258
261.5221	0.000612
261.7306	-0.000042
261.9392	0.000612
262.1477	0.000127
262.3563	0.000971
262.5649	0.000528
262.7735	0.001625
262.9822	0.001308
263.1908	0.001604
263.3995	0.000000
263.6081	0.000549
263.8168	0.001414
264.0255	0.000063
264.2342	0.001583
264.4429	0.000950
264.6517	0.000295
264.8604	-0.001372
265.0692	0.000823
265.2780	0.000127
265.4868	0.000148
265.6956	-0.000359
265.9044	0.001393
266.1133	0.001034
266.3221	0.001140
266.5310	0.000063
266.7399	0.001372
266.9488	0.001203
267.1577	-0.000992
267.3666	0.000380
267.5755	0.001203
267.7845	0.000718
267.9935	0.002068
268.2024	0.000528
268.4114	0.002153
268.6205	0.002026
268.8295	0.001773
269.0385	-0.000021
269.2476	0.000781
269.4566	0.000084
269.6657	0.000696
269.8748	-0.000317
270.0839	-0.000443
270.2931	-0.000106
270.5022	0.000591
270.7114	0.000127
270.9205	0.001351
271.1297	0.000760
271.3389	0.002322
271.5481	0.000232
271.7573	0.001203
271.9666	0.000929
272.1758	0.000675
272.3851	0.000612
272.5944	-0.000380
272.8037	0.001372
273.0130	0.000886
273.2223	0.000570
273.4316	0.000570
273.6410	0.001414
273.8504	0.001055
274.0597	0.001477
274.2691	0.000528
274.4785	0.002216
274.6880	0.000127
274.8974	0.001372
275.1069	0.000000
275.3163	0.000232
275.5258	-0.000190
275.7353	0.001182
275.9448	0.001520
276.1543	0.000274
276.3639	0.000591
276.5734	0.000907
276.7830	0.001562
276.9926	0.000675
277.2022	0.000359
277.4118	0.001287
277.6214	-0.000380
277.8310	0.000507
278.0407	0.001182
278.2503	0.001351
278.4600	0.001393
278.6697	0.000485
278.8794	0.000464
279.0891	-0.000760
279.2989	0.001815
279.5086	-0.000654
279.7184	-0.001182
279.9281	-0.000359
280.1379	0.001161
280.3477	0.000042
280.5576	-0.000063
280.7674	0.000148
280.9772	0.000232
281.1871	0.001456
281.3970	0.000823
281.6069	0.001203
281.8168	0.000865
282.0267	0.000359
282.2366	0.000359
282.4466	0.000781
282.6565	0.000106
282.8665	0.001013
283.0765	0.001140
283.2865	0.000992
283.4965	0.001097
283.7065	0.000464
283.9166	0.000971
284.1266	0.000190
284.3367	0.001667
284.5468	0.000654
284.7569	0.002174
284.9670	0.000654
285.1771	0.001815
285.3873	0.000422
285.5974	0.001245
285.8076	-0.000528
286.0178	-0.000063
286.2280	0.002132
286.4382	0.001013
286.6484	0.001731
286.8587	0.001330
287.0689	0.000696
287.2792	0.000169
287.4895	0.000781
287.6998	0.000063
287.9101	0.000528
288.1204	0.000443
288.3308	0.000443
288.5411	0.002279
288.7515	-0.000950
288.9619	0.001773
289.1723	-0.000654
289.3827	0.001097
289.5931	-0.000739
289.8035	0.000464
290.0140	0.000549
290.2245	0.000760
290.4349	0.001245
290.6454	0.001161
290.8559	0.000992
291.0665	0.000401
291.2770	0.001076
291.4875	-0.000232
291.6981	0.000148
291.9087	0.000190
292.1193	0.001287
292.3299	0.001161
292.5405	0.000338
292.7511	-0.001140
292.9618	0.000929
293.1724	0.000802
293.3831	0.000591
293.5938	-0.000886
293.8045	-0.000274
294.0152	0.000760
294.2260	-0.000211
294.4367	0.001140
294.6475	0.001034
294.8582	0.001604
295.0690	0.000253
295.2798	0.000359
295.4906	0.000760
295.7015	-0.000253
295.9123	0.001731
296.1232	0.001076
296.3340	0.001773
296.5449	0.001963
296.7558	0.000253
296.9667	0.000211
297.1777	0.001351
297.3886	0.000359
297.5995	0.001097
297.8105	0.001477
298.0215	0.002068
298.2325	0.002153
298.4435	-0.000148
298.6545	0.000591
298.8656	-0.000570
299.0766	0.000992
299.2877	0.000464
299.4988	0.000739
299.7099	0.000464
299.9210	0.000464
300.1321	-0.000106
300.3432	0.001182
300.5544	0.000612
300.7655	0.000507
300.9767	0.000823
301.1879	0.000380
301.3991	0.001055
301.6103	0.000443
301.8215	0.000232
302.0328	0.001963
302.2441	0.000739
302.4553	0.001773
302.6666	0.001583
302.8779	0.000295
303.0892	0.000359
303.3006	0.001435
303.5119	0.001942
303.7233	0.000380
303.9346	0.001984
304.1460	-0.000443
304.3574	0.000718
304.5688	0.001667
304.7803	0.001287
304.9917	0.000612
305.2031	0.001477
305.4146	0.000929
305.6261	-0.001076
305.8376	0.000148
306.0491	0.000823
306.2606	0.002258
306.4722	0.001393
306.6837	0.001034
306.8953	0.000232
307.1069	0.000886
307.3184	0.000148
307.5301	0.001541
307.7417	-0.000274
307.9533	0.001520
308.1650	0.001646
308.3766	0.001055
308.5883	0.000422
308.8000	0.000718
309.0117	0.000654
309.2234	0.000823
309.4351	-0.000127
309.6469	0.001646
309.8586	-0.000422
310.0704	0.001625
310.2822	0.000781
310.4940	0.000570
310.7058	-0.001034
310.9176	0.001013
311.1295	-0.000042
311.3413	0.000612
311.5532	0.001308
311.7651	0.000211
311.9770	0.001351
312.1889	0.001287
312.4008	-0.000169
312.6127	0.000106
312.8247	-0.000190
313.0366	0.000380
313.2486	0.000401
313.4606	0.001034
313.6726	0.000190
313.8846	0.000760
314.0967	0.001182
314.3087	0.001773
314.5208	0.001899
314.7328	0.002153
314.9449	0.000443
315.1570	0.000992
315.3692	-0.000253
315.5813	0.001266
315.7934	0.000633
316.0056	0.000148
316.2177	0.001308
316.4299	0.001667
316.6421	0.000992
316.8543	0.001625
317.0666	0.000000
317.2788	0.001921
317.4911	0.000317
317.7033	0.000295
317.9156	0.001942
318.1279	0.001498
318.3402	0.000802
318.5525	-0.000042
318.7649	-0.000190
318.9772	0.001731
319.1896	-0.001055
319.4019	0.001667
319.6143	0.000570
319.8267	0.001161
320.0392	0.000106
320.2516	-0.000190
320.4640	-0.000127
320.6765	0.000802
320.8890	0.000464
321.1014	0.000485
321.3139	0.000718
321.5265	0.001836
321.7390	0.001477
321.9515	0.000063
322.1641	-0.000338
322.3766	0.001604
322.5892	0.001984
322.8018	0.000760
323.0144	0.001034
323.2270	0.000781
323.4397	0.000084
323.6523	0.000106
323.8650	0.000211
324.0777	0.001119
324.2904	0.001520
324.5031	0.002237
324.7158	-0.000084
324.9285	0.000696
325.1412	0.001034
325.3540	0.001245
325.5668	0.000464
325.7796	0.000507
325.9924	0.000992
326.2052	0.001942
326.4180	0.000929
326.6308	0.000528
326.8437	-0.000380
327.0566	0.001245
327.2694	0.001097
327.4823	0.001140
327.6952	0.001076
327.9082	0.000781
328.1211	0.001308
328.3340	-0.000317
328.5470	0.000338
328.7600	0.000422
328.9730	-0.000295
329.1860	0.000443
329.3990	-0.000232
329.6120	0.000190
329.8251	-0.000950
330.0381	0.000654
330.2512	-0.000549
330.4643	0.000612
330.6774	0.000127
330.8905	0.001646
331.1036	0.000021
331.3167	0.000380
331.5299	0.001857
331.7431	0.000739
331.9562	0.000295
332.1694	0.001857
332.3826	0.001583
332.5959	0.001393
332.8091	-0.000422
333.0223	0.001308
333.2356	0.000084
333.4489	0.000654
333.6622	0.000211
333.8755	0.000401
334.0888	0.000169
334.3021	-0.000739
334.5154	0.001203
334.7288	0.001562
334.9422	0.001731
335.1555	0.000127
335.3689	0.001287
335.5823	0.000190
335.7958	0.000084
336.0092	0.000021
336.2227	-0.001308
336.4361	0.001541
336.6496	0.000127
336.8631	0.000654
337.0766	0.000844
337.2901	0.001625
337.5036	0.001815
337.7172	0.000443
337.9307	0.000549
338.1443	0.002258
338.3579	-0.000274
338.5715	0.002575
338.7851	0.000675
338.9987	0.002068
339.2124	0.000295
339.4260	0.001034
339.6397	-0.000295
339.8533	0.001541
340.0670	0.000549
340.2807	0.002047
340.4945	0.000464
340.7082	0.000338
340.9219	-0.000675
341.1357	0.001562
341.3495	0.000528
341.5633	0.001794
341.7771	0.001372
341.9909	0.001794
342.2047	0.000907
342.4185	0.002047
342.6324	-0.000760
342.8463	0.001541
343.0601	0.001055
343.2740	0.000485
343.4879	0.000971
343.7019	0.000232
343.9158	0.000380
344.1297	0.000549
344.3437	0.001414
344.5577	0.001034
344.7717	0.000865
344.9857	0.001308
345.1997	0.001393
345.4137	0.000443
345.6277	0.000295
345.8418	0.001942
346.0559	0.000274
346.2699	-0.000317
346.4840	0.000443
346.6981	0.002828
346.9123	0.001899
347.1264	0.001667
347.3406	0.000654
347.5547	-0.000232
347.7689	-0.000507
347.9831	0.001097
348.1973	0.001224
348.4115	0.000380
348.6257	0.000718
348.8400	0.001330
349.0542	-0.000359
349.2685	0.000886
349.4828	0.000612
349.6971	0.001456
349.9114	0.000823
350.1257	0.001161
350.3400	0.000232
350.5544	0.001076
350.7687	0.001266
350.9831	-0.001097
351.1975	-0.000802
351.4119	0.000907
351.6263	-0.000380
351.8407	0.001794
352.0552	0.000802
352.2696	0.001266
352.4841	0.001182
352.6986	0.000971
352.9131	0.001097
353.1276	-0.000127
353.3421	0.000422
353.5566	0.001245
353.7712	-0.000401
353.9858	0.000317
354.2003	-0.000633
354.4149	0.001393
354.6295	0.000865
354.8441	0.000865
355.0588	0.001646
355.2734	0.001477
355.4881	0.000886
355.7027	0.001456
355.9174	0.001351
356.1321	0.000295
356.3468	0.001119
356.5615	0.000507
356.7763	0.001731
356.9910	0.000633
357.2058	0.001034
357.4206	0.000021
357.6353	-0.000633
357.8501	0.001203
358.0650	-0.000823
358.2798	0.000042
358.4946	0.001034
358.7095	0.000886
358.9243	-0.000274
359.1392	0.001688
359.3541	0.000084
359.5690	0.000380
359.7839	-0.001203
359.9989	0.001773
360.2138	-0.000443
360.4288	0.000274
360.6438	-0.000253
360.8587	-0.000084
361.0737	0.000865
361.2888	0.000950
361.5038	0.001266
361.7188	0.000317
361.9339	0.001076
362.1489	0.001266
362.3640	-0.000338
362.5791	0.001498
362.7942	0.001034
363.0093	0.000802
363.2245	0.001667
363.4396	0.002132
363.6548	-0.000042
363.8699	0.001857
364.0851	-0.000106
364.3003	-0.000570
364.5155	0.000000
364.7308	0.000718
364.9460	-0.000211
365.1612	0.001245
365.3765	0.000232
365.5918	-0.000084
365.8071	-0.000317
366.0224	0.000549
366.2377	0.000106
366.4530	0.000654
366.6684	0.001034
366.8837	0.001604
367.0991	0.000591
367.3145	0.001562
367.5299	0.000359
367.7453	0.001520
367.9607	-0.000190
368.1761	0.000106
368.3916	0.000211
368.6070	0.000359
368.8225	0.001245
369.0380	0.001161
369.2535	0.001351
369.4690	0.000760
369.6845	0.001182
369.9001	0.000718
370.1156	0.000211
370.3312	0.000295
370.5468	0.000274
370.7624	0.000232
370.9780	-0.000844
371.1936	0.000865
371.4092	0.000232
371.6249	0.000549
371.8405	0.000696
372.0562	0.000084
372.2719	0.000148
372.4876	0.000232
372.7033	0.000169
372.9190	0.001013
373.1348	0.000274
373.3505	0.000886
373.5663	0.000696
373.7820	0.001351
373.9978	0.000718
374.2136	0.001055
374.4294	-0.000549
374.6453	0.000654
374.8611	0.002068
375.0770	0.000654
375.2928	-0.000169
375.5087	0.002912
375.7246	-0.000507
375.9405	0.000485
376.1564	0.000253
376.3724	0.000295
376.5883	-0.000232
376.8043	0.000211
377.0203	0.000317
377.2362	0.001836
377.4522	-0.000464
377.6682	0.000633
377.8843	0.000971
378.1003	0.000633
378.3164	0.000929
378.5324	0.000865
378.7485	-0.000612
378.9646	0.000443
379.1807	0.000422
379.3968	0.000633
379.6129	-0.000084
379.8291	0.001097
380.0452	0.000907
380.2614	0.000042
380.4776	0.001414
380.6938	0.001245
380.9100	0.000718
381.1262	0.001942
381.3424	0.000507
381.5587	0.000844
381.7749	0.000802
381.9912	-0.000106
382.2075	0.000929
382.4238	0.000654
382.6401	0.000464
382.8564	0.000507
383.0728	0.000675
383.2891	0.001034
383.5055	0.000696
383.7219	0.000232
383.9382	0.000127
384.1546	0.001625
384.3711	0.000274
384.5875	-0.001013
384.8039	0.001583
385.0204	0.001140
385.2368	0.001899
385.4533	0.001773
385.6698	0.001224
385.8863	0.000253
386.1028	0.000148
386.3194	0.001667
386.5359	0.001899
386.7525	0.002132
386.9690	0.003102
387.1856	0.000000
387.4022	0.002554
387.6188	0.000169
387.8355	0.000718
388.0521	0.000443
388.2687	0.001055
388.4854	0.002300
388.7021	-0.000696
388.9188	0.001583
389.1355	0.000718
389.3522	0.002427
389.5689	0.001330
389.7856	0.001646
390.0024	0.001351
390.2192	0.000570
390.4359	0.002216
390.6527	0.001140
390.8695	0.000718
391.0863	0.002343
391.3032	0.001076
391.5200	0.001773
391.7369	0.001562
391.9537	0.003271
392.1706	0.000907
392.3875	0.002343
392.6044	0.000823
392.8213	0.003335
393.0383	0.002174
393.2552	0.001963
393.4722	0.002026
393.6891	0.002955
393.9061	0.002322
394.1231	0.002912
394.3401	0.002680
394.5572	0.002828
394.7742	0.002575
394.9912	0.004770
395.2083	0.003039
395.4254	0.003060
395.6425	0.002955
395.8596	0.003693
396.0767	0.002343
396.2938	0.002680
396.5109	0.004073
396.7281	0.003862
396.9453	0.003102
397.1624	0.005297
397.3796	0.003778
397.5968	0.004305
397.8140	0.004685
398.0313	0.005487
398.2485	0.005276
398.4658	0.005867
398.6830	0.004749
398.9003	0.005740
399.1176	0.005234
399.3349	0.005572
399.5522	0.005107
399.7696	0.006395
399.9869	0.006437
400.2043	0.006711
400.4216	0.005656
400.6390	0.005466
400.8564	0.008146
401.0738	0.006796
401.2912	0.006015
401.5087	0.006859
401.7261	0.006732
401.9436	0.006416
402.1610	0.007745
402.3785	0.007766
402.5960	0.007007
402.8135	0.008463
403.0310	0.008357
403.2486	0.006585
403.4661	0.008252
403.6837	0.007745
403.9013	0.007049
404.1189	0.007914
404.3365	0.008864
404.5541	0.007387
404.7717	0.010130
404.9893	0.008653
405.2070	0.009244
405.4246	0.011228
405.6423	0.008020
405.8600	0.010552
406.0777	0.008927
406.2954	0.010362
406.5131	0.011713
406.7309	0.010151
406.9486	0.008125
407.1664	0.009624
407.3842	0.008758
407.6020	0.010489
407.8198	0.010679
408.0376	0.008843
408.2554	0.010700
408.4733	0.010426
408.6911	0.010679
408.9090	0.009497
409.1269	0.010890
409.3448	0.011038
409.5627	0.010552
409.7806	0.010974
409.9985	0.012811
410.2165	0.010763
410.4344	0.011692
410.6524	0.012515
410.8704	0.011143
411.0884	0.010489
411.3064	0.012642
411.5244	0.013401
411.7424	0.012642
411.9605	0.013444
412.1785	0.012895
412.3966	0.012431
412.6147	0.012768
412.8328	0.012220
413.0509	0.014436
413.2690	0.014351
413.4871	0.014858
413.7053	0.013211
413.9234	0.014731
414.1416	0.015026
414.3598	0.010679
414.5780	0.012874
414.7962	0.014689
415.0144	0.014351
415.2326	0.014984
415.4509	0.014815
415.6692	0.015807
415.8874	0.014077
416.1057	0.014625
416.3240	0.014562
416.5423	0.016145
416.7606	0.015343
416.9790	0.015216
417.1973	0.015512
417.4157	0.016040
417.6341	0.016462
417.8524	0.017010
418.0708	0.014668
418.2893	0.015639
418.5077	0.016293
418.7261	0.016377
418.9446	0.015322
419.1630	0.015449
419.3815	0.016609
419.6000	0.016799
419.8185	0.015259
420.0370	0.017306
420.2555	0.016251
420.4741	0.018931
420.6926	0.019205
420.9112	0.017855
421.1298	0.019121
421.3483	0.020471
421.5669	0.021949
421.7856	0.022751
422.0042	0.020999
422.2228	0.021822
422.4415	0.021484
422.6601	0.019965
422.8788	0.020830
423.0975	0.021273
423.3162	0.019691
423.5349	0.020725
423.7536	0.018340
423.9724	0.021928
424.1911	0.019902
424.4099	0.019480
424.6287	0.019100
424.8475	0.021822
425.0663	0.020239
425.2851	0.020619
425.5039	0.021590
425.7228	0.019480
425.9416	0.020134
426.1605	0.020155
426.3793	0.019057
426.5982	0.019733
426.8171	0.017791
427.0361	0.020704
427.2550	0.020661
427.4739	0.023110
427.6929	0.022012
427.9118	0.020788
428.1308	0.020915
428.3498	0.021084
428.5688	0.020936
428.7878	0.021358
429.0068	0.021126
429.2259	0.021696
429.4449	0.021822
429.6640	0.023426
429.8831	0.021611
430.1022	0.025579
430.3213	0.023764
430.5404	0.025748
