# Wavelength (nm)	Intensity (a.u.)
197.7802	0.000294
197.9842	-0.000508
198.1882	0.000631
198.3922	0.000969
198.5963	-0.000487
198.8003	-0.000360
199.0044	0.001053
199.2085	0.000695
199.4126	0.000167
199.6168	-0.000656
199.8209	0.000631
200.0251	0.000040
200.2292	0.000357
200.4334	0.001771
200.6376	0.000695
200.8418	0.000505
201.0461	0.000167
201.2503	0.000209
201.4546	-0.000128
201.6589	-0.000318
201.8631	0.000737
202.0674	-0.000571
202.2718	0.000336
202.4761	0.000716
202.6805	-0.000044
202.8848	-0.000086
203.0892	-0.000403
203.2936	0.000040
203.4980	0.000652
203.7024	0.000652
203.9069	0.000188
204.1113	-0.000086
204.3158	0.000505
204.5203	0.000125
204.7248	-0.000213
204.9293	-0.000360
205.1338	0.000568
205.3384	0.000230
205.5430	0.001496
205.7475	0.000146
205.9521	0.000315
206.1567	-0.000213
206.3614	0.000716
206.5660	-0.000339
206.7706	-0.000044
206.9753	-0.000276
207.1800	0.000040
207.3847	-0.000128
207.5894	-0.000171
207.7941	0.001243
207.9989	0.000589
208.2036	-0.000192
208.4084	0.000589
208.6132	-0.000424
208.8180	-0.000550
209.0228	0.000146
209.2276	0.000420
209.4325	0.000505
209.6373	0.001982
209.8422	0.000800
210.0471	0.001496
210.2520	-0.000972
210.4569	-0.000044
210.6618	-0.001563
210.8668	0.000357
211.0718	-0.001394
211.2767	-0.001078
211.4817	0.000758
211.6867	-0.000065
211.8918	0.000399
212.0968	0.000505
212.3018	0.000863
212.5069	0.000209
212.7120	0.001053
212.9171	-0.000529
213.1222	-0.000571
213.3273	-0.000677
213.5325	0.000315
213.7376	0.000484
213.9428	0.000695
214.1480	0.000505
214.3532	0.000399
214.5584	0.000441
214.7636	-0.000571
214.9689	-0.000382
215.1741	0.000125
215.3794	-0.000635
215.5847	-0.000318
215.7900	0.000842
215.9953	-0.000023
216.2007	0.000167
216.4060	-0.000571
216.6114	0.000737
216.8168	-0.001458
217.0222	0.000969
217.2276	0.000062
217.4330	0.001053
217.6384	0.000062
217.8439	0.000040
218.0494	0.000420
218.2548	0.000146
218.4603	-0.000234
218.6659	0.000399
218.8714	0.000209
219.0769	0.000315
219.2825	0.000884
219.4881	0.000505
219.6936	0.000737
219.8992	0.001349
220.1049	0.001644
220.3105	0.000167
220.5161	0.001475
220.7218	-0.000804
220.9275	-0.000023
221.1332	0.001539
221.3389	0.000652
221.5446	0.000631
221.7503	-0.000677
221.9561	0.000821
222.1618	0.000399
222.3676	-0.000550
222.5734	0.001074
222.7792	0.001496
222.9850	0.000568
223.1909	0.000610
223.3967	0.001644
223.6026	0.000399
223.8085	0.000526
224.0144	-0.000002
224.2203	0.000146
224.4262	-0.001205
224.6322	0.001475
224.8381	0.000737
225.0441	-0.001437
225.2501	-0.000044
225.4561	0.000251
225.6621	0.000821
225.8681	-0.000023
226.0742	0.001159
226.2802	0.000273
226.4863	-0.000213
226.6924	-0.000192
226.8985	0.001750
227.1046	0.000083
227.3107	-0.000339
227.5169	-0.000002
227.7230	-0.000192
227.9292	0.000019
228.1354	0.000990
228.3416	0.000104
228.5478	0.001328
228.7541	0.000188
228.9603	0.000062
229.1666	0.000083
229.3729	0.001834
229.5791	0.000547
229.7855	0.001602
229.9918	0.001032
230.1981	0.000927
230.4045	-0.000614
230.6108	0.000547
230.8172	0.000652
231.0236	0.000737
231.2300	-0.000276
231.4364	0.001560
231.6429	-0.000065
231.8493	-0.000065
232.0558	0.000062
232.2623	0.000251
232.4688	0.000420
232.6753	0.000484
232.8818	0.000040
233.0884	0.000146
233.2949	0.000927
233.5015	0.000505
233.7081	-0.000972
233.9147	-0.000107
234.1213	-0.000635
234.3279	0.000083
234.5346	0.000441
234.7413	-0.000149
234.9479	0.000589
235.1546	0.001665
235.3613	-0.000445
235.5680	0.000695
235.7748	0.000441
235.9815	0.000737
236.1883	-0.000128
236.3951	0.000990
236.6018	-0.000107
236.8087	0.001433
237.0155	-0.000804
237.2223	0.000462
237.4292	-0.000149
237.6360	0.002172
237.8429	0.000441
238.0498	0.000631
238.2567	0.000462
238.4636	0.001349
238.6706	-0.000360
238.8775	-0.000065
239.0845	0.000230
239.2915	0.000842
239.4985	-0.000466
239.7055	-0.000382
239.9125	-0.000487
240.1195	0.000251
240.3266	-0.001605
240.5337	0.000040
240.7407	-0.000318
240.9478	-0.000065
241.1549	-0.000044
241.3621	0.001053
241.5692	0.002362
241.7764	-0.000086
241.9835	-0.000719
242.1907	0.000125
242.3979	-0.001226
242.6051	0.000420
242.8124	-0.000382
243.0196	0.000673
243.2269	-0.000930
243.4341	-0.000234
243.6414	-0.001205
243.8487	0.001349
244.0560	0.001011
244.2634	0.000737
244.4707	0.001264
244.6781	-0.000023
244.8854	0.000230
245.0928	0.001032
245.3002	0.000568
245.5076	0.000251
245.7151	-0.001036
245.9225	0.000378
246.1300	0.000357
246.3375	-0.000002
246.5449	0.000652
246.7524	-0.000023
246.9600	0.000990
247.1675	0.002151
247.3750	0.000441
247.5826	0.000821
247.7902	-0.000107
247.9978	0.001644
248.2054	0.000104
248.4130	0.000631
248.6206	0.000294
248.8283	0.002108
249.0359	0.000631
249.2436	-0.000255
249.4513	0.000863
249.6590	0.000990
249.8667	0.001180
250.0745	0.000399
250.2822	0.001496
250.4900	-0.000234
250.6978	0.001053
250.9056	0.000251
251.1134	-0.000234
251.3212	0.000167
251.5290	-0.000508
251.7369	0.001285
251.9447	0.000399
252.1526	0.000378
252.3605	0.001053
252.5684	-0.000382
252.7763	0.000294
252.9843	-0.000128
253.1922	0.000336
253.4002	0.001391
253.6082	0.001285
253.8162	0.000420
254.0242	0.001518
254.2322	-0.001015
254.4402	0.000273
254.6483	0.000188
254.8564	0.000209
255.0644	0.000357
255.2725	0.001117
255.4806	0.001285
255.6888	-0.000234
255.8969	0.000505
256.1051	0.001074
256.3132	0.001222
256.5214	-0.000192
256.7296	0.000927
256.9378	0.000399
257.1460	0.000378
257.3543	0.000273
257.5625	0.002488
257.7708	-0.000550
257.9791	0.001264
258.1874	0.000547
258.3957	0.000441
258.6040	0.000273
258.8124	0.001602
259.0207	-0.000149
259.2291	0.000230
259.4375	0.000209
259.6459	0.000484
259.8543	0.000990
260.0627	0.000589
260.2711	-0.001205
260.4796	0.000083
260.6881	-0.001437
260.8965	0.000779
261.1050	0.000251
261.3135	0.000652
261.5221	0.000547
261.7306	0.000378
261.9392	-0.000044
262.1477	0.000125
262.3563	0.001686
262.5649	0.000399
262.7735	-0.000740
262.9822	0.001349
263.1908	0.000800
263.3995	0.000589
263.6081	0.002467
263.8168	0.000863
264.0255	0.000695
264.2342	0.000484
264.4429	-0.000213
264.6517	-0.000466
264.8604	0.000631
265.0692	0.001391
265.2780	0.000315
265.4868	0.000294
265.6956	0.000399
265.9044	0.000758
266.1133	0.000610
266.3221	0.000800
266.5310	0.001243
266.7399	0.000441
266.9488	0.000441
267.1577	0.001518
267.3666	0.000695
267.5755	-0.000656
267.7845	-0.000529
267.9935	0.000821
268.2024	0.000631
268.4114	-0.000382
268.6205	0.000294
268.8295	0.000652
269.0385	0.000821
269.2476	0.000716
269.4566	-0.000255
269.6657	0.000357
269.8748	0.000990
270.0839	0.001285
270.2931	0.000019
270.5022	0.000167
270.7114	-0.000128
270.9205	-0.000614
271.1297	-0.000044
271.3389	-0.000065
271.5481	0.000484
271.7573	0.000083
271.9666	0.001159
272.1758	0.001391
272.3851	-0.000571
272.5944	0.000948
272.8037	0.000273
273.0130	-0.000445
273.2223	0.000484
273.4316	0.001032
273.6410	-0.002112
273.8504	0.001412
274.0597	0.000800
274.2691	0.001095
274.4785	0.000378
274.6880	0.000125
274.8974	-0.001205
275.1069	0.001370
275.3163	0.000568
275.5258	-0.000002
275.7353	0.000484
275.9448	0.000884
276.1543	0.000399
276.3639	0.000188
276.5734	0.000589
276.7830	0.001496
276.9926	0.001180
277.2022	0.001328
277.4118	0.000420
277.6214	0.001243
277.8310	-0.000761
278.0407	0.000821
278.2503	-0.000360
278.4600	0.000230
278.6697	0.001243
278.8794	0.001813
279.0891	0.001623
279.2989	0.000990
279.5086	-0.001099
279.7184	0.002193
279.9281	-0.000128
280.1379	0.000716
280.3477	0.000547
280.5576	0.000610
280.7674	0.000420
280.9772	0.000019
281.1871	0.000526
281.3970	-0.000382
281.6069	-0.000255
281.8168	0.000441
282.0267	-0.000529
282.2366	0.000547
282.4466	-0.000149
282.6565	-0.000023
282.8665	0.000251
283.0765	0.000209
283.2865	-0.000276
283.4965	0.002805
283.7065	0.000526
283.9166	0.001581
284.1266	0.000695
284.3367	0.001243
284.5468	0.000652
284.7569	0.000568
284.9670	0.000062
285.1771	0.000104
285.3873	0.000062
285.5974	0.000906
285.8076	-0.000677
286.0178	0.001370
286.2280	-0.000065
286.4382	0.000357
286.6484	0.000083
286.8587	0.001095
287.0689	-0.000192
287.2792	0.001074
287.4895	0.000230
287.6998	-0.000698
287.9101	0.000251
288.1204	-0.000403
288.3308	0.000631
288.5411	-0.000403
288.7515	0.000610
288.9619	-0.000550
289.1723	-0.000065
289.3827	0.000399
289.5931	0.000652
289.8035	0.001307
290.0140	0.000083
290.2245	0.001729
290.4349	0.000399
290.6454	0.000631
290.8559	-0.000234
291.0665	0.000167
291.2770	-0.001416
291.4875	0.000484
291.6981	0.000673
291.9087	0.000547
292.1193	-0.000445
292.3299	0.000948
292.5405	0.000040
292.7511	0.001328
292.9618	-0.000466
293.1724	0.000378
293.3831	0.000125
293.5938	0.000505
293.8045	0.000040
294.0152	0.000589
294.2260	0.000294
294.4367	0.000568
294.6475	0.000251
294.8582	0.000188
295.0690	0.000399
295.2798	0.000631
295.4906	-0.000297
295.7015	-0.000297
295.9123	0.000884
296.1232	0.001433
296.3340	-0.000255
296.5449	0.000040
296.7558	-0.000086
296.9667	-0.000128
297.1777	-0.000234
297.3886	-0.000529
297.5995	-0.000804
297.8105	0.001496
298.0215	0.000230
298.2325	0.000357
298.4435	0.000821
298.6545	0.000695
298.8656	0.000441
299.0766	0.000589
299.2877	0.001475
299.4988	0.001750
299.7099	0.000294
299.9210	0.000209
300.1321	-0.001605
300.3432	0.001138
300.5544	-0.000107
300.7655	0.000420
300.9767	-0.001732
301.1879	0.001665
301.3991	0.000484
301.6103	0.001201
301.8215	0.000779
302.0328	0.000484
302.2441	0.000083
302.4553	-0.000171
302.6666	0.000589
302.8779	0.001328
303.0892	0.000441
303.3006	0.000821
303.5119	0.001243
303.7233	0.000631
303.9346	0.000842
304.1460	0.002952
304.3574	-0.000719
304.5688	0.000927
304.7803	-0.000171
304.9917	0.001539
305.2031	-0.000867
305.4146	0.000673
305.6261	0.001307
305.8376	0.000420
306.0491	0.001222
306.2606	0.000990
306.4722	-0.000086
306.6837	-0.000466
306.8953	0.001095
307.1069	0.001095
307.3184	0.002066
307.5301	0.000948
307.7417	0.000040
307.9533	0.000842
308.1650	-0.000846
308.3766	0.000652
308.5883	0.001138
308.8000	0.000821
309.0117	0.000251
309.2234	-0.000192
309.4351	0.000357
309.6469	-0.000761
309.8586	0.000484
310.0704	0.002066
310.2822	0.001138
310.4940	-0.000297
310.7058	0.001180
310.9176	0.000589
311.1295	-0.001162
311.3413	-0.000424
311.5532	0.000062
311.7651	0.001433
311.9770	-0.000909
312.1889	0.000315
312.4008	0.000631
312.6127	0.001285
312.8247	-0.000972
313.0366	0.000568
313.2486	-0.000023
313.4606	0.000758
313.6726	-0.001732
313.8846	-0.000466
314.0967	0.000146
314.3087	0.000884
314.5208	0.000631
314.7328	0.001855
314.9449	-0.000276
315.1570	0.001391
315.3692	-0.001226
315.5813	0.001560
315.7934	0.001750
316.0056	0.000652
316.2177	0.000420
316.4299	0.002024
316.6421	0.000484
316.8543	0.000526
317.0666	0.001138
317.2788	0.000484
317.4911	0.000589
317.7033	0.001264
317.9156	0.001053
318.1279	0.000884
318.3402	-0.001247
318.5525	0.000357
318.7649	0.000062
318.9772	0.001138
319.1896	-0.000382
319.4019	0.000526
319.6143	0.000969
319.8267	0.000779
320.0392	0.000104
320.2516	-0.000002
320.4640	0.000526
320.6765	0.000188
320.8890	0.000969
321.1014	0.001581
321.3139	0.000800
321.5265	0.001053
321.7390	-0.001627
321.9515	0.000673
322.1641	0.000378
322.3766	0.001750
322.5892	0.000230
322.8018	0.001328
323.0144	0.000652
323.2270	0.000336
323.4397	0.000737
323.6523	0.000315
323.8650	-0.000635
324.0777	0.001307
324.2904	0.000526
324.5031	0.000083
324.7158	-0.000192
324.9285	0.000906
325.1412	0.000441
325.3540	0.000251
325.5668	0.000083
325.7796	0.001264
325.9924	0.000673
326.2052	0.000589
326.4180	0.001095
326.6308	-0.000318
326.8437	0.000568
327.0566	0.001750
327.2694	-0.000149
327.4823	0.000631
327.6952	0.000441
327.9082	0.000146
328.1211	-0.000466
328.3340	-0.000339
328.5470	0.000083
328.7600	0.000737
328.9730	0.000547
329.1860	0.000230
329.3990	0.001011
329.6120	0.000547
329.8251	0.000716
330.0381	0.001982
330.2512	0.000040
330.4643	0.000040
330.6774	0.001792
330.8905	0.000547
331.1036	-0.001036
331.3167	0.000019
331.5299	0.000758
331.7431	0.002108
331.9562	-0.000297
332.1694	0.001053
332.3826	0.000104
332.5959	0.000758
332.8091	0.001433
333.0223	0.001644
333.2356	0.000062
333.4489	0.001370
333.6622	0.000589
333.8755	0.000125
334.0888	0.000420
334.3021	0.001602
334.5154	0.000695
334.7288	0.001686
334.9422	0.000737
335.1555	0.001180
335.3689	0.000125
335.5823	0.001264
335.7958	-0.000065
336.0092	-0.002238
336.2227	-0.000888
336.4361	0.000927
336.6496	0.000104
336.8631	-0.000698
337.0766	-0.000593
337.2901	0.000315
337.5036	0.000863
337.7172	-0.002091
337.9307	-0.000234
338.1443	0.001328
338.3579	0.000610
338.5715	0.001095
338.7851	-0.000086
338.9987	0.001496
339.2124	0.000969
339.4260	0.000505
339.6397	-0.000234
339.8533	0.000040
340.0670	0.001264
340.2807	0.001074
340.4945	0.000716
340.7082	0.002235
340.9219	-0.000593
341.1357	0.001834
341.3495	0.000040
341.5633	0.002151
341.7771	0.000779
341.9909	0.000842
342.2047	0.000294
342.4185	0.000821
342.6324	0.000251
342.8463	0.001813
343.0601	0.000294
343.2740	0.002045
343.4879	0.001412
343.7019	-0.000128
343.9158	0.000906
344.1297	0.000758
344.3437	0.000040
344.5577	0.000336
344.7717	0.001095
344.9857	0.000062
345.1997	0.000673
345.4137	-0.000846
345.6277	-0.000593
345.8418	-0.000719
346.0559	0.000315
346.2699	0.001707
346.4840	-0.000339
346.6981	-0.000107
346.9123	0.001095
347.1264	0.000969
347.3406	0.001940
347.5547	0.000589
347.7689	-0.000318
347.9831	0.000631
348.1973	-0.001078
348.4115	0.000040
348.6257	0.000505
348.8400	0.000230
349.0542	0.001011
349.2685	0.000462
349.4828	-0.000107
349.6971	0.002087
349.9114	0.000568
350.1257	0.000294
350.3400	0.001454
350.5544	0.000505
350.7687	-0.000192
350.9831	0.000526
351.1975	-0.000213
351.4119	0.000884
351.6263	0.000336
351.8407	-0.000677
352.0552	-0.000972
352.2696	0.001665
352.4841	0.000315
352.6986	0.002235
352.9131	0.000462
353.1276	0.002066
353.3421	0.000209
353.5566	0.000737
353.7712	0.001264
353.9858	0.001433
354.2003	0.001581
354.4149	0.000505
354.6295	0.001011
354.8441	0.001032
355.0588	0.001518
355.2734	0.000969
355.4881	-0.000635
355.7027	0.000399
355.9174	-0.000297
356.1321	0.000399
356.3468	0.000104
356.5615	0.000589
356.7763	-0.000635
356.9910	0.002108
357.2058	0.000336
357.4206	-0.000382
357.6353	0.000336
357.8501	0.001454
358.0650	-0.001120
358.2798	0.001011
358.4946	-0.000761
358.7095	0.001750
358.9243	-0.000635
359.1392	0.001032
359.3541	-0.000023
359.5690	0.000526
359.7839	0.000547
359.9989	0.001011
360.2138	-0.000002
360.4288	-0.000297
360.6438	0.001243
360.8587	0.000526
361.0737	-0.001120
361.2888	0.000378
361.5038	-0.000128
361.7188	0.001855
361.9339	0.000146
362.1489	0.000673
362.3640	0.000315
362.5791	0.000526
362.7942	0.000336
363.0093	0.001201
363.2245	0.000209
363.4396	-0.000825
363.6548	0.001159
363.8699	-0.000044
364.0851	0.000083
364.3003	0.001053
364.5155	-0.000297
364.7308	0.000589
364.9460	-0.000276
365.1612	-0.000445
365.3765	0.000273
365.5918	0.000779
365.8071	0.002172
366.0224	0.000800
366.2377	-0.000339
366.4530	0.000062
366.6684	0.000062
366.8837	-0.000149
367.0991	0.000420
367.3145	-0.000107
367.5299	0.001117
367.7453	0.001138
367.9607	0.001011
368.1761	0.001032
368.3916	0.000188
368.6070	-0.000149
368.8225	0.002087
369.0380	0.000484
369.2535	-0.001162
369.4690	0.000589
369.6845	-0.000297
369.9001	0.000505
370.1156	0.000315
370.3312	0.000357
370.5468	0.001159
370.7624	0.000336
370.9780	0.000906
371.1936	0.000737
371.4092	0.000821
371.6249	0.001391
371.8405	0.001370
372.0562	0.000948
372.2719	0.000125
372.4876	0.002024
372.7033	0.000083
372.9190	0.002151
373.1348	0.001454
373.3505	0.000251
373.5663	0.000273
373.7820	0.002446
373.9978	0.000273
374.2136	0.002425
374.4294	0.001328
374.6453	0.002657
374.8611	0.001412
375.0770	0.000589
375.2928	0.003543
375.5087	0.002045
375.7246	0.002446
375.9405	0.002594
376.1564	0.002129
376.3724	0.003142
376.5883	0.003248
376.8043	0.003585
377.0203	0.001475
377.2362	0.002699
377.4522	0.002129
377.6682	0.002530
377.8843	0.003290
378.1003	0.003944
378.3164	0.003311
378.5324	0.003374
378.7485	0.002488
378.9646	0.003206
379.1807	0.004282
379.3968	0.004303
379.6129	0.003522
379.8291	0.005717
380.0452	0.004197
380.2614	0.004809
380.4776	0.005696
380.6938	0.005569
380.9100	0.006898
381.1262	0.006708
381.3424	0.006075
381.5587	0.006455
381.7749	0.007405
381.9912	0.007299
382.2075	0.008185
382.4238	0.007574
382.6401	0.009072
382.8564	0.009831
383.0728	0.008924
383.2891	0.009072
383.5055	0.008607
383.7219	0.010760
383.9382	0.011984
384.1546	0.009008
384.3711	0.009114
384.5875	0.009557
384.8039	0.009684
385.0204	0.011435
385.2368	0.012026
385.4533	0.010612
385.6698	0.010338
385.8863	0.011625
386.1028	0.011477
386.3194	0.014389
386.5359	0.010274
386.7525	0.014495
386.9690	0.013186
387.1856	0.013967
387.4022	0.014115
387.6188	0.014769
387.8355	0.016204
388.0521	0.014389
388.2687	0.016394
388.4854	0.016753
388.7021	0.016668
388.9188	0.017681
389.1355	0.016373
389.3522	0.016267
389.5689	0.015465
389.7856	0.017259
390.0024	0.016035
390.2192	0.015824
390.4359	0.016731
390.6527	0.017786
390.8695	0.016584
391.0863	0.019432
391.3032	0.019770
391.5200	0.019221
391.7369	0.019053
391.9537	0.019812
392.1706	0.020698
392.3875	0.020466
392.6044	0.021606
392.8213	0.024412
393.0383	0.022830
393.2552	0.022914
393.4722	0.023969
393.6891	0.022534
393.9061	0.022598
394.1231	0.025066
394.3401	0.023420
394.5572	0.022640
394.7742	0.024982
394.9912	0.025214
395.2083	0.023589
395.4254	0.026332
395.6425	0.022661
395.8596	0.024644
396.0767	0.023547
396.2938	0.026459
396.5109	0.025151
396.7281	0.025362
396.9453	0.024539
397.1624	0.026923
397.3796	0.027324
397.5968	0.027366
397.8140	0.027809
398.0313	0.029962
398.2485	0.030700
398.4658	0.032030
398.6830	0.030954
398.9003	0.030342
399.1176	0.029814
399.3349	0.028780
399.5522	0.029033
399.7696	0.029856
399.9869	0.028970
400.2043	0.030194
400.4216	0.028485
400.6390	0.029097
400.8564	0.029392
401.0738	0.029835
401.2912	0.030510
401.5087	0.028485
401.7261	0.030384
401.9436	0.029877
402.1610	0.029941
402.3785	0.030553
402.5960	0.028928
402.8135	0.028822
403.0310	0.030215
403.2486	0.028569
403.4661	0.029624
403.6837	0.030658
403.9013	0.031122
404.1189	0.032853
404.3365	0.030827
404.5541	0.032599
404.7717	0.031249
404.9893	0.030637
405.2070	0.033507
405.4246	0.032832
405.6423	0.033190
405.8600	0.034182
406.0777	0.032262
406.2954	0.032431
406.5131	0.029772
406.7309	0.029265
406.9486	0.030616
407.1664	0.032367
407.3842	0.031587
407.6020	0.028274
407.8198	0.031987
408.0376	0.030679
408.2554	0.027767
408.4733	0.030700
408.6911	0.033676
408.9090	0.031882
409.1269	0.032810
409.3448	0.034435
409.5627	0.031080
409.7806	0.032705
409.9985	0.033401
410.2165	0.031819
410.4344	0.033676
410.6524	0.032199
410.8704	0.030679
411.0884	0.033612
411.3064	0.033021
411.5244	0.032093
411.7424	0.032051
411.9605	0.033296
412.1785	0.031692
412.3966	0.032810
412.6147	0.032621
412.8328	0.031755
413.0509	0.033127
413.2690	0.033422
413.4871	0.034456
413.7053	0.033718
413.9234	0.033802
414.1416	0.033865
414.3598	0.032768
414.5780	0.032410
414.7962	0.032410
415.0144	0.035321
415.2326	0.034520
415.4509	0.032599
415.6692	0.034562
415.8874	0.033950
416.1057	0.034604
416.3240	0.035258
416.5423	0.034899
416.7606	0.032684
416.9790	0.033844
417.1973	0.034604
417.4157	0.034077
417.6341	0.033085
417.8524	0.034836
418.0708	0.034477
418.2893	0.031924
418.5077	0.033169
418.7261	0.032199
418.9446	0.034140
419.1630	0.034836
419.3815	0.033528
419.6000	0.035300
419.8185	0.033865
420.0370	0.034878
420.2555	0.035258
420.4741	0.037495
420.6926	0.037875
420.9112	0.038191
421.1298	0.036883
421.3483	0.038655
421.5669	0.042074
421.7856	0.043066
422.0042	0.043445
422.2228	0.043255
422.4415	0.042011
422.6601	0.040196
422.8788	0.040660
423.0975	0.041989
423.3162	0.041842
423.5349	0.038571
423.7536	0.040386
423.9724	0.039710
424.1911	0.037263
424.4099	0.037136
424.6287	0.037664
424.8475	0.040512
425.0663	0.038276
425.2851	0.040048
425.5039	0.039985
425.7228	0.037073
425.9416	0.036946
426.1605	0.035532
426.3793	0.034477
426.5982	0.036419
426.8171	0.034414
427.0361	0.033254
427.2550	0.038086
427.4739	0.037094
427.6929	0.039732
427.9118	0.039943
428.1308	0.038677
428.3498	0.038698
428.5688	0.037432
428.7878	0.036229
429.0068	0.037221
429.2259	0.036588
429.4449	0.039331
429.6640	0.036714
