# Wavelength (nm)	Intensity (a.u.)
197.7802	0.000847
197.9842	0.000552
198.1882	0.000847
198.3922	0.000974
198.5963	0.000151
198.8003	-0.000482
199.0044	0.001501
199.2085	0.001142
199.4126	0.000742
199.6168	0.001501
199.8209	0.000468
200.0251	0.001585
200.2292	0.001269
200.4334	0.000446
200.6376	0.000278
200.8418	0.001606
201.0461	0.001332
201.2503	0.001628
201.4546	0.001353
201.6589	0.001311
201.8631	0.001733
202.0674	0.001121
202.2718	0.001206
202.4761	0.001058
202.6805	0.000193
202.8848	0.001459
203.0892	0.001185
203.2936	0.000953
203.4980	0.000130
203.7024	0.001522
203.9069	0.000278
204.1113	-0.000967
204.3158	0.000531
204.5203	0.001733
204.7248	0.001332
204.9293	-0.000524
205.1338	0.001227
205.3384	0.000214
205.5430	0.002070
205.7475	0.000974
205.9521	0.001311
206.1567	0.001733
206.3614	0.000425
206.5660	0.000130
206.7706	0.002661
206.9753	0.000130
207.1800	0.000172
207.3847	-0.000207
207.5894	0.000257
207.7941	0.001016
207.9989	0.000046
208.2036	0.001501
208.4084	0.001311
208.6132	0.000510
208.8180	0.000889
209.0228	0.001923
209.2276	0.001206
209.4325	0.001543
209.6373	0.000573
209.8422	0.000320
210.0471	0.000889
210.2520	0.000763
210.4569	0.001817
210.6618	0.000953
210.8668	0.001016
211.0718	0.001796
211.2767	0.000468
211.4817	0.000847
211.6867	0.000742
211.8918	0.000151
212.0968	0.002787
212.3018	0.000573
212.5069	0.001522
212.7120	0.001248
212.9171	0.002239
213.1222	0.000109
213.3273	0.001564
213.5325	-0.000123
213.7376	0.000257
213.9428	0.000805
214.1480	0.001290
214.3532	0.000151
214.5584	0.001332
214.7636	0.001585
214.9689	0.000805
215.1741	0.001817
215.3794	-0.000840
215.5847	0.000214
215.7900	0.001543
215.9953	0.000489
216.2007	0.000932
216.4060	0.002218
216.6114	0.000847
216.8168	0.001396
217.0222	0.000721
217.2276	0.000805
217.4330	0.000784
217.6384	0.000446
217.8439	0.001290
218.0494	0.000004
218.2548	0.001796
218.4603	0.000594
218.6659	0.001881
218.8714	0.000784
219.0769	0.000383
219.2825	-0.000018
219.4881	0.001585
219.6936	0.000889
219.8992	0.002471
220.1049	0.000700
220.3105	0.000657
220.5161	0.000151
220.7218	0.001037
220.9275	0.001121
221.1332	0.000468
221.3389	0.000974
221.5446	0.001058
221.7503	0.000636
221.9561	0.001121
222.1618	-0.000123
222.3676	0.001332
222.5734	0.000425
222.7792	0.000425
222.9850	-0.000123
223.1909	0.001164
223.3967	0.000657
223.6026	0.000552
223.8085	0.001290
224.0144	0.000046
224.2203	0.002134
224.4262	0.000995
224.6322	0.001332
224.8381	0.001227
225.0441	0.001206
225.2501	0.000151
225.4561	0.001079
225.6621	0.000615
225.8681	0.000320
226.0742	0.000489
226.2802	-0.000018
226.4863	0.001058
226.6924	0.000362
226.8985	0.001459
227.1046	0.000742
227.3107	0.000847
227.5169	0.001058
227.7230	0.000468
227.9292	0.002513
228.1354	0.000953
228.3416	-0.000271
228.5478	0.001944
228.7541	0.001121
228.9603	0.000552
229.1666	0.000299
229.3729	0.001649
229.5791	0.001332
229.7855	0.001649
229.9918	-0.000271
230.1981	0.000446
230.4045	0.000763
230.6108	0.000278
230.8172	0.000700
231.0236	0.000531
231.2300	0.000404
231.4364	0.002429
231.6429	0.000910
231.8493	0.001396
232.0558	0.000362
232.2623	0.002450
232.4688	0.001079
232.6753	0.000404
232.8818	0.000151
233.0884	0.000236
233.2949	0.000889
233.5015	0.002091
233.7081	0.000320
233.9147	0.001206
234.1213	-0.000271
234.3279	0.000510
234.5346	0.001691
234.7413	0.002113
234.9479	0.000657
235.1546	0.003483
235.3613	0.000932
235.5680	0.001860
235.7748	0.001501
235.9815	0.000552
236.1883	0.000151
236.3951	0.001628
236.6018	-0.000207
236.8087	0.001142
237.0155	0.000742
237.2223	0.001564
237.4292	0.001585
237.6360	0.001628
237.8429	0.001185
238.0498	0.000889
238.2567	0.001396
238.4636	0.001016
238.6706	0.001353
238.8775	0.001670
239.0845	-0.000355
239.2915	0.002260
239.4985	0.000468
239.7055	0.000151
239.9125	0.000425
240.1195	0.000151
240.3266	0.001206
240.5337	-0.001388
240.7407	0.000678
240.9478	0.000721
241.1549	0.001628
241.3621	0.001923
241.5692	0.000552
241.7764	0.001058
241.9835	0.000678
242.1907	0.002851
242.3979	0.000109
242.6051	-0.000271
242.8124	0.001185
243.0196	0.001754
243.2269	0.000278
243.4341	0.000826
243.6414	0.000847
243.8487	0.000552
244.0560	-0.000671
244.2634	0.000531
244.4707	0.000805
244.6781	0.001585
244.8854	0.002028
245.0928	0.001585
245.3002	0.000531
245.5076	0.002492
245.7151	0.001164
245.9225	0.001902
246.1300	0.000868
246.3375	0.001860
246.5449	-0.000334
246.7524	0.003209
246.9600	0.001227
247.1675	0.002619
247.3750	-0.000798
247.5826	0.001353
247.7902	-0.000186
247.9978	0.001796
248.2054	0.001311
248.4130	0.001396
248.6206	0.001796
248.8283	0.003019
249.0359	0.000974
249.2436	0.001796
249.4513	0.001079
249.6590	0.001564
249.8667	0.001649
250.0745	0.001965
250.2822	0.002007
250.4900	0.001691
250.6978	0.001417
250.9056	0.001670
251.1134	0.000742
251.3212	0.000700
251.5290	-0.000692
251.7369	0.001628
251.9447	0.001543
252.1526	0.002471
252.3605	0.000847
252.5684	-0.000355
252.7763	0.000046
252.9843	-0.000081
253.1922	0.001628
253.4002	0.002028
253.6082	-0.000418
253.8162	0.002070
254.0242	0.000995
254.2322	0.000214
254.4402	-0.000692
254.6483	-0.000397
254.8564	0.000067
255.0644	0.001459
255.2725	0.002281
255.4806	0.001311
255.6888	-0.000165
255.8969	0.001838
256.1051	0.001944
256.3132	0.001543
256.5214	0.000953
256.7296	0.001290
256.9378	0.001248
257.1460	0.001606
257.3543	0.000425
257.5625	0.001775
257.7708	0.000889
257.9791	0.001986
258.1874	0.000932
258.3957	0.001332
258.6040	0.001860
258.8124	0.000510
259.0207	0.001227
259.2291	0.001564
259.4375	0.001649
259.6459	0.000742
259.8543	0.001164
260.0627	0.002091
260.2711	0.000953
260.4796	0.001754
260.6881	0.000214
260.8965	0.001417
261.1050	-0.000608
261.3135	0.000615
261.5221	0.001016
261.7306	0.001649
261.9392	0.001396
262.1477	0.002028
262.3563	0.000953
262.5649	0.000172
262.7735	0.001206
262.9822	0.002577
263.1908	-0.000271
263.3995	0.001838
263.6081	0.001311
263.8168	0.000172
264.0255	0.000763
264.2342	0.000193
264.4429	-0.001072
264.6517	0.001480
264.8604	0.000425
265.0692	0.001628
265.2780	0.000953
265.4868	0.001543
265.6956	0.000257
265.9044	0.001564
266.1133	0.000932
266.3221	0.001860
266.5310	0.000489
266.7399	0.000299
266.9488	0.001881
267.1577	0.000636
267.3666	0.002049
267.5755	0.000974
267.7845	0.000826
267.9935	0.000130
268.2024	0.000236
268.4114	0.001058
268.6205	0.000700
268.8295	0.000784
269.0385	0.000278
269.2476	0.000889
269.4566	0.000109
269.6657	0.001438
269.8748	0.000636
270.0839	0.002239
270.2931	-0.000460
270.5022	0.000721
270.7114	-0.000207
270.9205	0.001374
271.1297	0.001438
271.3389	0.002134
271.5481	0.000721
271.7573	0.001290
271.9666	0.001817
272.1758	0.002914
272.3851	0.002366
272.5944	0.001142
272.8037	0.000151
273.0130	0.000805
273.2223	0.001733
273.4316	0.001712
273.6410	0.001290
273.8504	0.000446
274.0597	0.000383
274.2691	0.001564
274.4785	0.000847
274.6880	0.001923
274.8974	0.001227
275.1069	-0.000671
275.3163	0.001438
275.5258	0.000636
275.7353	-0.000460
275.9448	0.001353
276.1543	0.000615
276.3639	0.001037
276.5734	0.001206
276.7830	0.000446
276.9926	0.000784
277.2022	0.001923
277.4118	0.000425
277.6214	0.002155
277.8310	0.002070
278.0407	0.001459
278.2503	0.001100
278.4600	0.001206
278.6697	0.000889
278.8794	0.000299
279.0891	0.000805
279.2989	0.000910
279.5086	0.000868
279.7184	0.001754
279.9281	0.000446
280.1379	0.001121
280.3477	0.000995
280.5576	0.001986
280.7674	0.000932
280.9772	0.001248
281.1871	-0.000313
281.3970	0.000446
281.6069	0.000594
281.8168	0.000784
282.0267	0.001311
282.2366	0.001374
282.4466	0.000953
282.6565	-0.000060
282.8665	0.001438
283.0765	0.000552
283.2865	0.002197
283.4965	0.000826
283.7065	0.001290
283.9166	0.000953
284.1266	-0.000418
284.3367	0.000953
284.5468	0.000847
284.7569	0.002176
284.9670	0.001396
285.1771	0.000847
285.3873	-0.000524
285.5974	0.000383
285.8076	0.000468
286.0178	0.001438
286.2280	-0.000250
286.4382	0.000700
286.6484	0.000404
286.8587	0.001923
287.0689	0.000193
287.2792	-0.000250
287.4895	-0.000503
287.6998	0.001480
287.9101	0.000383
288.1204	0.000742
288.3308	0.000510
288.5411	0.001649
288.7515	-0.000207
288.9619	0.000953
289.1723	-0.000271
289.3827	0.002260
289.5931	0.000636
289.8035	-0.000671
290.0140	0.001142
290.2245	0.001712
290.4349	-0.001072
290.6454	0.001332
290.8559	0.000742
291.0665	0.000974
291.2770	0.001121
291.4875	0.000995
291.6981	0.001353
291.9087	0.000067
292.1193	0.001501
292.3299	0.001817
292.5405	0.000953
292.7511	0.001164
292.9618	-0.000903
293.1724	0.001290
293.3831	-0.000545
293.5938	0.001079
293.8045	0.000678
294.0152	0.000721
294.2260	-0.000608
294.4367	0.001185
294.6475	0.001185
294.8582	0.002323
295.0690	0.002049
295.2798	0.000510
295.4906	-0.000018
295.7015	0.002091
295.9123	0.001712
296.1232	0.001817
296.3340	-0.000228
296.5449	0.001775
296.7558	0.001860
296.9667	0.001100
297.1777	0.001100
297.3886	0.001480
297.5995	0.000425
297.8105	0.001649
298.0215	0.000868
298.2325	0.001248
298.4435	0.000531
298.6545	0.001649
298.8656	0.001585
299.0766	0.001227
299.2877	-0.000545
299.4988	0.001332
299.7099	0.001543
299.9210	0.002851
300.1321	0.002049
300.3432	0.001543
300.5544	0.000953
300.7655	0.000404
300.9767	-0.000650
301.1879	0.001142
301.3991	0.001248
301.6103	0.001860
301.8215	0.003019
302.0328	0.001754
302.2441	0.000552
302.4553	0.000742
302.6666	0.001670
302.8779	0.001374
303.0892	0.001100
303.3006	0.001733
303.5119	0.001733
303.7233	0.001438
303.9346	0.001628
304.1460	0.000468
304.3574	-0.000018
304.5688	0.001670
304.7803	0.001248
304.9917	0.000573
305.2031	-0.000861
305.4146	0.002091
305.6261	0.000657
305.8376	0.001480
306.0491	0.000784
306.2606	0.001585
306.4722	0.000678
306.6837	0.001438
306.8953	0.001606
307.1069	0.001670
307.3184	0.001712
307.5301	0.001206
307.7417	0.000404
307.9533	0.002366
308.1650	0.000552
308.3766	0.001775
308.5883	0.002134
308.8000	0.002323
309.0117	0.002070
309.2234	0.001817
309.4351	0.000552
309.6469	0.000573
309.8586	0.002091
310.0704	0.002745
310.2822	-0.000102
310.4940	0.002809
310.7058	0.001944
310.9176	0.001564
311.1295	0.000678
311.3413	0.001438
311.5532	0.002239
311.7651	0.001670
311.9770	0.001248
312.1889	0.001670
312.4008	0.000742
312.6127	0.001079
312.8247	0.002408
313.0366	0.001628
313.2486	0.002091
313.4606	0.001311
313.6726	0.002281
313.8846	0.002007
314.0967	-0.000271
314.3087	0.002935
314.5208	0.000615
314.7328	0.002809
314.9449	0.001881
315.1570	0.002555
315.3692	0.001438
315.5813	0.001332
315.7934	-0.000123
316.0056	0.001079
316.2177	0.001353
316.4299	0.003863
316.6421	0.001227
316.8543	0.000784
317.0666	0.003842
317.2788	0.001860
317.4911	0.001754
317.7033	0.002555
317.9156	0.002387
318.1279	0.002070
318.3402	0.002281
318.5525	0.002513
318.7649	0.001374
318.9772	0.001374
319.1896	0.000425
319.4019	0.002387
319.6143	0.001796
319.8267	0.001838
320.0392	0.002471
320.2516	0.003062
320.4640	0.003209
320.6765	0.002471
320.8890	-0.000376
321.1014	0.002049
321.3139	0.001881
321.5265	0.004158
321.7390	0.002914
321.9515	0.003863
322.1641	0.001733
322.3766	0.003294
322.5892	0.002218
322.8018	0.003315
323.0144	0.001881
323.2270	0.002091
323.4397	0.003462
323.6523	0.003167
323.8650	0.001754
324.0777	0.003273
324.2904	0.001628
324.5031	0.002851
324.7158	0.002998
324.9285	0.002429
325.1412	0.003146
325.3540	0.004939
325.5668	0.002302
325.7796	0.003589
325.9924	0.002661
326.2052	0.004939
326.4180	0.003125
326.6308	0.004580
326.8437	0.004833
327.0566	0.003420
327.2694	0.003104
327.4823	0.002851
327.6952	0.003209
327.9082	0.004643
328.1211	0.002724
328.3340	0.003230
328.5470	0.004032
328.7600	0.003062
328.9730	0.002724
329.1860	0.004665
329.3990	0.002661
329.6120	0.005930
329.8251	0.002408
330.0381	0.004179
330.2512	0.004179
330.4643	0.003800
330.6774	0.005487
330.8905	0.005065
331.1036	0.002682
331.3167	0.004897
331.5299	0.004538
331.7431	0.003526
331.9562	0.005487
332.1694	0.004812
332.3826	0.004116
332.5959	0.006078
332.8091	0.004032
333.0223	0.004454
333.2356	0.004264
333.4489	0.004643
333.6622	0.004011
333.8755	0.004791
334.0888	0.003715
334.3021	0.006753
334.5154	0.004580
334.7288	0.004601
334.9422	0.004686
335.1555	0.004517
335.3689	0.006289
335.5823	0.004179
335.7958	0.005529
336.0092	0.005782
336.2227	0.004875
336.4361	0.005740
336.6496	0.006331
336.8631	0.005044
337.0766	0.006963
337.2901	0.005930
337.5036	0.005171
337.7172	0.005023
337.9307	0.006183
338.1443	0.006563
338.3579	0.004538
338.5715	0.006141
338.7851	0.006078
338.9987	0.004559
339.2124	0.006837
339.4260	0.004643
339.6397	0.005023
339.8533	0.006310
340.0670	0.004791
340.2807	0.006710
340.4945	0.006795
340.7082	0.006436
340.9219	0.006373
341.1357	0.005466
341.3495	0.004854
341.5633	0.004875
341.7771	0.006373
341.9909	0.006289
342.2047	0.007027
342.4185	0.007870
342.6324	0.006942
342.8463	0.007195
343.0601	0.005656
343.2740	0.006795
343.4879	0.007997
343.7019	0.006436
343.9158	0.006415
344.1297	0.007786
344.3437	0.007069
344.5577	0.008313
344.7717	0.006563
344.9857	0.007533
345.1997	0.006942
345.4137	0.007723
345.6277	0.006605
345.8418	0.006900
346.0559	0.007723
346.2699	0.007090
346.4840	0.009136
346.6981	0.005297
346.9123	0.006183
347.1264	0.008060
347.3406	0.008461
347.5547	0.007090
347.7689	0.007723
347.9831	0.009389
348.1973	0.008587
348.4115	0.008461
348.6257	0.008334
348.8400	0.007807
349.0542	0.008524
349.2685	0.008988
349.4828	0.008862
349.6971	0.009051
349.9114	0.008145
350.1257	0.007828
350.3400	0.010085
350.5544	0.008693
350.7687	0.008672
350.9831	0.007702
351.1975	0.007449
351.4119	0.008841
351.6263	0.009515
351.8407	0.009199
352.0552	0.008819
352.2696	0.010507
352.4841	0.009241
352.6986	0.009262
352.9131	0.008292
353.1276	0.009431
353.3421	0.009094
353.5566	0.008946
353.7712	0.010022
353.9858	0.008862
354.2003	0.009073
354.4149	0.009874
354.6295	0.008946
354.8441	0.010781
355.0588	0.010127
355.2734	0.009600
355.4881	0.009241
355.7027	0.010570
355.9174	0.008735
356.1321	0.010865
356.3468	0.009979
356.5615	0.010528
356.7763	0.009241
356.9910	0.009642
357.2058	0.010823
357.4206	0.009979
357.6353	0.009452
357.8501	0.010886
358.0650	0.010380
358.2798	0.010633
358.4946	0.009305
358.7095	0.011076
358.9243	0.008630
359.1392	0.010950
359.3541	0.009305
359.5690	0.009262
359.7839	0.010106
359.9989	0.010254
360.2138	0.010528
360.4288	0.011308
360.6438	0.010443
360.8587	0.010443
361.0737	0.010760
361.2888	0.012131
361.5038	0.011308
361.7188	0.009937
361.9339	0.010633
362.1489	0.011730
362.3640	0.011055
362.5791	0.010317
362.7942	0.011561
363.0093	0.011814
363.2245	0.010570
363.4396	0.010718
363.6548	0.010211
363.8699	0.010401
364.0851	0.010211
364.3003	0.010823
364.5155	0.012173
364.7308	0.012089
364.9460	0.010823
365.1612	0.010781
365.3765	0.012658
365.5918	0.011646
365.8071	0.010823
366.0224	0.012426
366.2377	0.013059
366.4530	0.014240
366.6684	0.012194
366.8837	0.010380
367.0991	0.012553
367.3145	0.012721
367.5299	0.012321
367.7453	0.012742
367.9607	0.012152
368.1761	0.013291
368.3916	0.012700
368.6070	0.014493
368.8225	0.013291
369.0380	0.013270
369.2535	0.012932
369.4690	0.013712
369.6845	0.013649
369.9001	0.014282
370.1156	0.012173
370.3312	0.013080
370.5468	0.012806
370.7624	0.013987
370.9780	0.013017
371.1936	0.012700
371.4092	0.013270
371.6249	0.013712
371.8405	0.014746
372.0562	0.014008
372.2719	0.013038
372.4876	0.015547
372.7033	0.013249
372.9190	0.014493
373.1348	0.013544
373.3505	0.014788
373.5663	0.016032
373.7820	0.014408
373.9978	0.014472
374.2136	0.015695
374.4294	0.014725
374.6453	0.016665
374.8611	0.015421
375.0770	0.015547
375.2928	0.014683
375.5087	0.016855
375.7246	0.016475
375.9405	0.016834
376.1564	0.017720
376.3724	0.018120
376.5883	0.016982
376.8043	0.017614
377.0203	0.017340
377.2362	0.019639
377.4522	0.019681
377.6682	0.017614
377.8843	0.018606
378.1003	0.017509
378.3164	0.019470
378.5324	0.019681
378.7485	0.021136
378.9646	0.020230
379.1807	0.021390
379.3968	0.020609
379.6129	0.019386
379.8291	0.020546
380.0452	0.020272
380.2614	0.020799
380.4776	0.020546
380.6938	0.018479
380.9100	0.021769
381.1262	0.019808
381.3424	0.021622
381.5587	0.019998
381.7749	0.019449
381.9912	0.022043
382.2075	0.020968
382.4238	0.021537
382.6401	0.023372
382.8564	0.024363
383.0728	0.022254
383.2891	0.023351
383.5055	0.023604
383.7219	0.021769
383.9382	0.022887
384.1546	0.023098
384.3711	0.022486
384.5875	0.022550
384.8039	0.024954
385.0204	0.023056
385.2368	0.023267
385.4533	0.023224
385.6698	0.022528
385.8863	0.024954
386.1028	0.024110
386.3194	0.022486
386.5359	0.023478
386.7525	0.023604
386.9690	0.023646
387.1856	0.024152
387.4022	0.024806
387.6188	0.025038
387.8355	0.025333
388.0521	0.026177
388.2687	0.026093
388.4854	0.024996
388.7021	0.026346
388.9188	0.027337
389.1355	0.026283
389.3522	0.026008
389.5689	0.024743
389.7856	0.026557
390.0024	0.024427
390.2192	0.025882
390.4359	0.025376
390.6527	0.025797
390.8695	0.026725
391.0863	0.028286
391.3032	0.027464
391.5200	0.026641
391.7369	0.026599
391.9537	0.027189
392.1706	0.027379
392.3875	0.029573
392.6044	0.031914
392.8213	0.028940
393.0383	0.031450
393.2552	0.031703
393.4722	0.028792
393.6891	0.029847
393.9061	0.028792
394.1231	0.028982
394.3401	0.029741
394.5572	0.029910
394.7742	0.028560
394.9912	0.030965
395.2083	0.029299
395.4254	0.029256
395.6425	0.030121
395.8596	0.031239
396.0767	0.029404
396.2938	0.030290
396.5109	0.031766
396.7281	0.031576
396.9453	0.032715
397.1624	0.032926
397.3796	0.033854
397.5968	0.034234
397.8140	0.033179
398.0313	0.036722
398.2485	0.035077
398.4658	0.036870
398.6830	0.036976
398.9003	0.036638
399.1176	0.034550
399.3349	0.036997
399.5522	0.035647
399.7696	0.034234
399.9869	0.034360
400.2043	0.033285
400.4216	0.034171
400.6390	0.034845
400.8564	0.033580
401.0738	0.032863
401.2912	0.034909
401.5087	0.034149
401.7261	0.033348
401.9436	0.032715
402.1610	0.032399
402.3785	0.032989
402.5960	0.033939
402.8135	0.032441
403.0310	0.035225
403.2486	0.034381
403.4661	0.034023
403.6837	0.035077
403.9013	0.034571
404.1189	0.034571
404.3365	0.034803
404.5541	0.035162
404.7717	0.036111
404.9893	0.035563
405.2070	0.035141
405.4246	0.036448
405.6423	0.038536
405.8600	0.038051
406.0777	0.036807
406.2954	0.036132
406.5131	0.035204
406.7309	0.033285
406.9486	0.034613
407.1664	0.035394
407.3842	0.034044
407.6020	0.032504
407.8198	0.032884
408.0376	0.034107
408.2554	0.035077
408.4733	0.034698
408.6911	0.037819
408.9090	0.034867
409.1269	0.034635
409.3448	0.035752
409.5627	0.035668
409.7806	0.037714
409.9985	0.036301
410.2165	0.033854
410.4344	0.035331
410.6524	0.033622
410.8704	0.035373
411.0884	0.034487
411.3064	0.035162
411.5244	0.036048
411.7424	0.034909
411.9605	0.035162
412.1785	0.035246
412.3966	0.034951
412.6147	0.035731
412.8328	0.036111
413.0509	0.038389
413.2690	0.035816
413.4871	0.037714
413.7053	0.037313
413.9234	0.036849
414.1416	0.035837
414.3598	0.035520
414.5780	0.034339
414.7962	0.035415
415.0144	0.038199
415.2326	0.035056
415.4509	0.037946
415.6692	0.032989
415.8874	0.036132
416.1057	0.038136
416.3240	0.038157
416.5423	0.036954
416.7606	0.036638
416.9790	0.036259
417.1973	0.036111
417.4157	0.035204
417.6341	0.036153
417.8524	0.036069
418.0708	0.033939
418.2893	0.035394
418.5077	0.036322
418.7261	0.037123
418.9446	0.036680
419.1630	0.037186
419.3815	0.035731
419.6000	0.037587
419.8185	0.038241
420.0370	0.038473
420.2555	0.039633
420.4741	0.041700
420.6926	0.040603
420.9112	0.039928
421.1298	0.042122
421.3483	0.043914
421.5669	0.045159
421.7856	0.046551
422.0042	0.044737
422.2228	0.043366
422.4415	0.044758
422.6601	0.042839
422.8788	0.044547
423.0975	0.044231
423.3162	0.043387
423.5349	0.042712
423.7536	0.042607
423.9724	0.041805
424.1911	0.041848
424.4099	0.041805
424.6287	0.039106
424.8475	0.042670
425.0663	0.042058
425.2851	0.041869
425.5039	0.041025
425.7228	0.040139
425.9416	0.039296
426.1605	0.037650
426.3793	0.037946
426.5982	0.037967
426.8171	0.036617
427.0361	0.038874
427.2550	0.040603
427.4739	0.042037
427.6929	0.042269
427.9118	0.043261
428.1308	0.038958
428.3498	0.040224
428.5688	0.040709
428.7878	0.039506
429.0068	0.041594
429.2259	0.041447
429.4449	0.043830
429.6640	0.044336
429.8831	0.049714
430.1022	0.049525
430.3213	0.048407
430.5404	0.048491
430.7595	0.047162
430.9787	0.046298
431.1978	0.047078
431.4170	0.043682
431.6362	0.041004
