# Wavelength (nm)	Intensity (a.u.)
197.7802	0.001056
197.9842	0.000761
198.1882	-0.000146
198.3922	-0.000040
198.5963	0.000655
198.8003	0.000803
199.0044	-0.000040
199.2085	0.000339
199.4126	0.001140
199.6168	0.000487
199.8209	0.001162
200.0251	0.000255
200.2292	-0.000420
200.4334	0.002469
200.6376	-0.000399
200.8418	-0.000146
201.0461	-0.000062
201.2503	-0.000525
201.4546	0.000170
201.6589	0.000972
201.8631	-0.000188
202.0674	-0.000167
202.2718	0.001288
202.4761	0.000276
202.6805	0.001836
202.8848	-0.000631
203.0892	0.000381
203.2936	0.000297
203.4980	0.000655
203.7024	0.001288
203.9069	-0.000188
204.1113	0.000170
204.3158	-0.000736
204.5203	0.000360
204.7248	0.000170
204.9293	0.001731
205.1338	0.000677
205.3384	0.000423
205.5430	0.000508
205.7475	-0.000504
205.9521	0.001562
206.1567	0.000719
206.3614	0.001267
206.5660	0.002406
206.7706	-0.000167
206.9753	0.000466
207.1800	0.000740
207.3847	-0.000399
207.5894	0.000170
207.7941	-0.000968
207.9989	0.001625
208.2036	0.000866
208.4084	0.002363
208.6132	0.001077
208.8180	-0.000462
209.0228	0.001457
209.2276	0.001119
209.4325	-0.000715
209.6373	0.001119
209.8422	0.000170
210.0471	0.001668
210.2520	0.001604
210.4569	0.000951
210.6618	0.000276
210.8668	0.001393
211.0718	0.001035
211.2767	0.000993
211.4817	0.000782
211.6867	0.000487
211.8918	-0.001411
212.0968	0.000487
212.3018	0.000761
212.5069	0.001752
212.7120	0.000550
212.9171	0.000402
213.1222	0.000276
213.3273	0.001372
213.5325	0.001035
213.7376	0.001372
213.9428	0.000402
214.1480	0.000445
214.3532	0.000634
214.5584	0.001604
214.7636	0.000107
214.9689	-0.000062
215.1741	-0.000546
215.3794	0.001330
215.5847	0.000571
215.7900	0.000887
215.9953	0.001056
216.2007	-0.000083
216.4060	0.001710
216.6114	0.000782
216.8168	0.000908
217.0222	0.000866
217.2276	0.001056
217.4330	0.000381
217.6384	0.000698
217.8439	0.002342
218.0494	-0.000989
218.2548	0.001393
218.4603	0.001098
218.6659	-0.000525
218.8714	-0.000715
219.0769	0.002110
219.2825	0.000613
219.4881	-0.000336
219.6936	0.000255
219.8992	0.000128
220.1049	0.000276
220.3105	0.001815
220.5161	0.000065
220.7218	0.000803
220.9275	0.000234
221.1332	0.001562
221.3389	0.001436
221.5446	0.000698
221.7503	0.000719
221.9561	0.000529
222.1618	0.000993
222.3676	0.000213
222.5734	-0.000230
222.7792	0.000761
222.9850	0.000276
223.1909	0.001288
223.3967	0.000908
223.6026	0.000149
223.8085	0.001288
224.0144	0.000592
224.2203	0.000845
224.4262	0.000951
224.6322	-0.000125
224.8381	0.000339
225.0441	0.000318
225.2501	0.000655
225.4561	0.001056
225.6621	0.000170
225.8681	0.000234
226.0742	0.001457
226.2802	0.000402
226.4863	0.001330
226.6924	-0.000146
226.8985	0.001098
227.1046	-0.000209
227.3107	0.000803
227.5169	0.000149
227.7230	-0.000462
227.9292	0.000550
228.1354	0.000993
228.3416	0.000234
228.5478	0.001984
228.7541	-0.000293
228.9603	0.000908
229.1666	0.000993
229.3729	0.000318
229.5791	0.000698
229.7855	0.001056
229.9918	0.001436
230.1981	-0.002044
230.4045	0.000655
230.6108	0.000550
230.8172	0.001478
231.0236	0.000782
231.2300	0.000592
231.4364	0.001393
231.6429	0.000107
231.8493	0.000592
232.0558	0.000381
232.2623	0.001752
232.4688	-0.000146
232.6753	0.002300
232.8818	0.000360
233.0884	0.000613
233.2949	0.000866
233.5015	0.000592
233.7081	-0.000040
233.9147	0.002511
234.1213	0.001119
234.3279	0.000023
234.5346	-0.000504
234.7413	-0.000420
234.9479	0.001246
235.1546	0.001140
235.3613	0.001457
235.5680	-0.000525
235.7748	0.000360
235.9815	-0.000272
236.1883	0.000550
236.3951	-0.000251
236.6018	0.000824
236.8087	0.001436
237.0155	0.001035
237.2223	0.000887
237.4292	0.001457
237.6360	0.001520
237.8429	-0.001538
238.0498	0.000719
238.2567	0.002110
238.4636	0.002553
238.6706	0.000972
238.8775	0.001731
239.0845	-0.000357
239.2915	0.000951
239.4985	0.000655
239.7055	-0.000589
239.9125	-0.001664
240.1195	0.001815
240.3266	0.000634
240.5337	0.000086
240.7407	-0.000420
240.9478	-0.000188
241.1549	0.000128
241.3621	-0.000062
241.5692	0.000128
241.7764	0.000972
241.9835	-0.000251
242.1907	0.001815
242.3979	-0.000525
242.6051	0.001119
242.8124	0.000508
243.0196	0.001731
243.2269	-0.001074
243.4341	0.000634
243.6414	-0.000251
243.8487	0.000655
244.0560	0.000318
244.2634	0.001562
244.4707	-0.000293
244.6781	0.001056
244.8854	0.000487
245.0928	0.000466
245.3002	0.000866
245.5076	-0.000272
245.7151	0.000360
245.9225	0.002089
246.1300	0.001415
246.3375	0.000740
246.5449	0.000466
246.7524	0.000445
246.9600	-0.000525
247.1675	0.000634
247.3750	-0.000546
247.5826	0.000128
247.7902	-0.000272
247.9978	0.000297
248.2054	0.001900
248.4130	0.000466
248.6206	0.000655
248.8283	0.000381
249.0359	-0.001031
249.2436	0.000824
249.4513	-0.000040
249.6590	0.002490
249.8667	0.000445
250.0745	0.002869
250.2822	0.000887
250.4900	0.000339
250.6978	-0.000483
250.9056	-0.000736
251.1134	0.000276
251.3212	0.000487
251.5290	0.000508
251.7369	0.000423
251.9447	0.000529
252.1526	0.000698
252.3605	0.000297
252.5684	0.001921
252.7763	-0.000083
252.9843	0.000592
253.1922	-0.000146
253.4002	0.000339
253.6082	-0.000905
253.8162	0.000592
254.0242	0.001689
254.2322	0.001541
254.4402	-0.000019
254.6483	0.000445
254.8564	0.000318
255.0644	0.000360
255.2725	-0.000293
255.4806	0.001583
255.6888	0.000550
255.8969	0.000381
256.1051	0.000782
256.3132	0.000508
256.5214	-0.000083
256.7296	0.001267
256.9378	-0.000357
257.1460	-0.000546
257.3543	0.000276
257.5625	0.000297
257.7708	0.001794
257.9791	-0.000293
258.1874	-0.000483
258.3957	0.002174
258.6040	0.000508
258.8124	-0.000715
259.0207	0.000402
259.2291	0.001056
259.4375	0.000255
259.6459	0.001668
259.8543	0.000002
260.0627	-0.000209
260.2711	0.000086
260.4796	0.000445
260.6881	-0.000336
260.8965	0.000487
261.1050	0.000213
261.3135	0.001562
261.5221	0.000930
261.7306	0.001478
261.9392	-0.000272
262.1477	0.001056
262.3563	0.000487
262.5649	0.000908
262.7735	0.001162
262.9822	0.000782
263.1908	0.000044
263.3995	0.000740
263.6081	0.001246
263.8168	0.000887
264.0255	0.001035
264.2342	0.000845
264.4429	-0.000146
264.6517	0.001162
264.8604	0.000213
265.0692	0.001457
265.2780	0.000698
265.4868	-0.000736
265.6956	-0.000336
265.9044	0.001689
266.1133	0.000402
266.3221	0.001372
266.5310	-0.000504
266.7399	0.000002
266.9488	0.000677
267.1577	0.000887
267.3666	0.000972
267.5755	0.001267
267.7845	0.000402
267.9935	0.000402
268.2024	0.000086
268.4114	0.000887
268.6205	0.000887
268.8295	0.000550
269.0385	0.000402
269.2476	0.000824
269.4566	0.000993
269.6657	0.001140
269.8748	0.000023
270.0839	0.001098
270.2931	0.000571
270.5022	0.001372
270.7114	0.000276
270.9205	0.000908
271.1297	0.000845
271.3389	0.001288
271.5481	-0.000040
271.7573	0.001478
271.9666	-0.000673
272.1758	0.001246
272.3851	0.000107
272.5944	0.000044
272.8037	0.001119
273.0130	-0.000715
273.2223	0.000107
273.4316	0.001393
273.6410	0.000508
273.8504	0.000529
274.0597	0.001225
274.2691	0.001731
274.4785	0.000065
274.6880	0.000023
274.8974	0.000276
275.1069	0.000149
275.3163	0.000276
275.5258	0.001436
275.7353	0.001689
275.9448	0.000086
276.1543	0.000782
276.3639	0.000972
276.5734	0.000107
276.7830	0.000930
276.9926	0.000192
277.2022	-0.000947
277.4118	0.000002
277.6214	-0.000504
277.8310	0.000993
278.0407	0.001625
278.2503	0.000719
278.4600	0.000930
278.6697	0.000951
278.8794	0.000613
279.0891	0.000297
279.2989	0.001162
279.5086	-0.000062
279.7184	0.000845
279.9281	-0.000546
280.1379	0.001056
280.3477	0.000972
280.5576	0.001436
280.7674	-0.000631
280.9772	0.000149
281.1871	0.000908
281.3970	-0.000188
281.6069	0.001225
281.8168	0.000972
282.0267	0.000550
282.2366	0.000423
282.4466	0.000192
282.6565	0.001288
282.8665	0.000866
283.0765	0.000761
283.2865	0.000677
283.4965	-0.000610
283.7065	-0.000568
283.9166	0.001225
284.1266	-0.000673
284.3367	0.001773
284.5468	-0.000083
284.7569	0.001204
284.9670	0.001246
285.1771	0.000107
285.3873	0.000023
285.5974	0.000677
285.8076	0.000023
286.0178	0.000719
286.2280	-0.000525
286.4382	0.001162
286.6484	-0.000926
286.8587	0.001625
287.0689	-0.000884
287.2792	0.001625
287.4895	0.000634
287.6998	-0.000167
287.9101	0.000908
288.1204	0.000930
288.3308	0.000592
288.5411	0.000213
288.7515	0.000255
288.9619	0.000487
289.1723	0.000972
289.3827	0.000571
289.5931	0.001562
289.8035	0.001330
290.0140	0.001204
290.2245	0.001436
290.4349	0.000824
290.6454	0.000951
290.8559	0.002321
291.0665	0.000044
291.2770	0.000002
291.4875	0.001098
291.6981	0.001183
291.9087	0.001162
292.1193	0.001098
292.3299	0.001963
292.5405	0.000002
292.7511	0.000571
292.9618	0.001878
293.1724	0.000592
293.3831	0.001372
293.5938	-0.001010
293.8045	0.000887
294.0152	0.000719
294.2260	0.001246
294.4367	-0.000251
294.6475	0.002469
294.8582	0.000339
295.0690	0.001119
295.2798	0.001077
295.4906	0.002153
295.7015	-0.000336
295.9123	0.000508
296.1232	-0.000968
296.3340	-0.000062
296.5449	0.001646
296.7558	-0.000589
296.9667	-0.000483
297.1777	0.001140
297.3886	0.001436
297.5995	0.001077
297.8105	0.001140
298.0215	0.001183
298.2325	0.001499
298.4435	0.000445
298.6545	0.000845
298.8656	-0.000357
299.0766	0.000339
299.2877	0.001520
299.4988	0.000655
299.7099	0.000655
299.9210	0.001288
300.1321	0.000107
300.3432	0.002258
300.5544	0.000782
300.7655	0.000782
300.9767	0.000740
301.1879	0.000908
301.3991	-0.000441
301.6103	-0.000251
301.8215	-0.000019
302.0328	0.002131
302.2441	0.000044
302.4553	0.001499
302.6666	-0.000019
302.8779	0.001246
303.0892	0.001668
303.3006	0.000592
303.5119	-0.000272
303.7233	0.001372
303.9346	0.001393
304.1460	0.000044
304.3574	-0.000525
304.5688	0.000360
304.7803	0.000719
304.9917	0.000571
305.2031	0.000803
305.4146	0.001119
305.6261	0.000866
305.8376	0.001246
306.0491	0.001267
306.2606	0.000086
306.4722	0.000993
306.6837	0.001204
306.8953	0.000677
307.1069	-0.000673
307.3184	0.000972
307.5301	0.001098
307.7417	0.000423
307.9533	0.001309
308.1650	0.000634
308.3766	0.001900
308.5883	0.001077
308.8000	0.001752
309.0117	0.000698
309.2234	0.001140
309.4351	0.001921
309.6469	0.001963
309.8586	0.000803
310.0704	0.001942
310.2822	0.001436
310.4940	0.001878
310.7058	0.001815
310.9176	0.000613
311.1295	0.000044
311.3413	0.000908
311.5532	0.000276
311.7651	0.002174
311.9770	0.000402
312.1889	0.001140
312.4008	0.001183
312.6127	0.000149
312.8247	0.001520
313.0366	0.000213
313.2486	0.000529
313.4606	0.001457
313.6726	0.002026
313.8846	0.001183
314.0967	0.001393
314.3087	0.000866
314.5208	0.001731
314.7328	0.000866
314.9449	0.001098
315.1570	0.001183
315.3692	0.001562
315.5813	0.003418
315.7934	0.000402
316.0056	0.000677
316.2177	0.000993
316.4299	0.001014
316.6421	-0.000272
316.8543	0.001183
317.0666	0.002047
317.2788	0.002701
317.4911	0.001963
317.7033	0.001836
317.9156	0.001836
318.1279	0.001710
318.3402	0.002026
318.5525	0.002258
318.7649	0.000381
318.9772	0.003312
319.1896	0.001077
319.4019	0.002153
319.6143	0.001625
319.8267	0.002153
320.0392	0.000107
320.2516	0.002363
320.4640	0.001520
320.6765	0.000993
320.8890	0.000655
321.1014	0.001098
321.3139	0.001520
321.5265	0.001499
321.7390	0.001098
321.9515	0.002237
322.1641	0.001162
322.3766	0.001984
322.5892	0.001098
322.8018	0.002427
323.0144	0.001857
323.2270	0.002848
323.4397	0.002469
323.6523	0.001963
323.8650	0.001583
324.0777	0.002891
324.2904	0.001773
324.5031	0.002954
324.7158	0.002806
324.9285	0.004050
325.1412	0.002848
325.3540	0.003650
325.5668	0.002300
325.7796	0.002342
325.9924	0.002532
326.2052	0.002511
326.4180	0.002553
326.6308	0.003439
326.8437	0.003650
327.0566	0.004346
327.2694	0.002363
327.4823	0.003312
327.6952	0.002448
327.9082	0.002110
328.1211	0.001330
328.3340	0.001794
328.5470	0.002616
328.7600	0.004114
328.9730	0.003270
329.1860	0.004388
329.3990	0.001984
329.6120	0.002574
329.8251	0.003144
330.0381	0.002827
330.2512	0.002975
330.4643	0.003882
330.6774	0.003165
330.8905	0.002195
331.1036	0.002954
331.3167	0.002848
331.5299	0.002300
331.7431	0.003038
331.9562	0.002785
332.1694	0.004156
332.3826	0.002848
332.5959	0.003249
332.8091	0.003228
333.0223	0.004050
333.2356	0.004156
333.4489	0.003945
333.6622	0.003713
333.8755	0.003291
334.0888	0.003270
334.3021	0.002785
334.5154	0.003333
334.7288	0.003692
334.9422	0.002806
335.1555	0.003692
335.3689	0.003608
335.5823	0.003270
335.7958	0.003692
336.0092	0.003249
336.2227	0.004156
336.4361	0.003397
336.6496	0.005147
336.8631	0.004114
337.0766	0.003059
337.2901	0.004788
337.5036	0.003460
337.7172	0.004704
337.9307	0.005590
338.1443	0.003861
338.3579	0.003713
338.5715	0.004999
338.7851	0.003755
338.9987	0.005800
339.2124	0.004367
339.4260	0.004957
339.6397	0.002848
339.8533	0.006032
340.0670	0.005400
340.2807	0.003966
340.4945	0.003144
340.7082	0.005400
340.9219	0.005358
341.1357	0.004409
341.3495	0.005168
341.5633	0.004240
341.7771	0.004641
341.9909	0.006749
342.2047	0.005632
342.4185	0.005316
342.6324	0.004198
342.8463	0.004620
343.0601	0.007024
343.2740	0.005041
343.4879	0.004957
343.7019	0.005737
343.9158	0.004894
344.1297	0.004957
344.3437	0.004683
344.5577	0.005590
344.7717	0.005547
344.9857	0.005990
345.1997	0.005210
345.4137	0.006370
345.6277	0.005547
345.8418	0.005168
346.0559	0.005484
346.2699	0.006855
346.4840	0.006075
346.6981	0.006665
346.9123	0.005590
347.1264	0.004535
347.3406	0.006581
347.5547	0.005885
347.7689	0.004514
347.9831	0.007002
348.1973	0.004809
348.4115	0.005737
348.6257	0.006475
348.8400	0.007045
349.0542	0.005843
349.2685	0.008120
349.4828	0.005716
349.6971	0.006918
349.9114	0.007171
350.1257	0.006201
350.3400	0.006665
350.5544	0.007066
350.7687	0.005695
350.9831	0.005400
351.1975	0.006517
351.4119	0.008078
351.6263	0.007487
351.8407	0.007150
352.0552	0.005695
352.2696	0.007066
352.4841	0.007909
352.6986	0.006075
352.9131	0.007825
353.1276	0.007804
353.3421	0.007867
353.5566	0.008036
353.7712	0.006770
353.9858	0.007213
354.2003	0.005927
354.4149	0.007909
354.6295	0.008710
354.8441	0.008837
355.0588	0.006918
355.2734	0.008078
355.4881	0.008985
355.7027	0.007129
355.9174	0.006201
356.1321	0.008331
356.3468	0.007340
356.5615	0.009132
356.7763	0.008225
356.9910	0.007466
357.2058	0.007867
357.4206	0.007298
357.6353	0.007361
357.8501	0.008521
358.0650	0.007698
358.2798	0.007698
358.4946	0.007234
358.7095	0.008795
358.9243	0.007424
359.1392	0.009174
359.3541	0.008057
359.5690	0.007846
359.7839	0.007656
359.9989	0.006897
360.2138	0.008310
360.4288	0.008563
360.6438	0.007762
360.8587	0.008963
361.0737	0.008963
361.2888	0.007255
361.5038	0.009322
361.7188	0.007572
361.9339	0.006834
362.1489	0.009870
362.3640	0.008268
362.5791	0.008795
362.7942	0.007614
363.0093	0.009301
363.2245	0.009195
363.4396	0.008584
363.6548	0.008120
363.8699	0.008015
364.0851	0.008015
364.3003	0.009322
364.5155	0.009090
364.7308	0.009048
364.9460	0.008985
365.1612	0.008753
365.3765	0.009006
365.5918	0.008795
365.8071	0.008542
366.0224	0.008668
366.2377	0.009216
366.4530	0.009153
366.6684	0.009132
366.8837	0.009006
367.0991	0.009933
367.3145	0.010566
367.5299	0.010018
367.7453	0.009195
367.9607	0.010081
368.1761	0.011030
368.3916	0.009786
368.6070	0.010081
368.8225	0.011051
369.0380	0.008563
369.2535	0.010165
369.4690	0.011557
369.6845	0.009828
369.9001	0.008162
370.1156	0.009111
370.3312	0.010482
370.5468	0.008162
370.7624	0.009470
370.9780	0.009533
371.1936	0.010840
371.4092	0.010355
371.6249	0.012886
371.8405	0.011178
372.0562	0.009744
372.2719	0.010735
372.4876	0.012738
372.7033	0.010081
372.9190	0.010629
373.1348	0.009807
373.3505	0.011578
373.5663	0.009912
373.7820	0.011473
373.9978	0.012105
374.2136	0.011536
374.4294	0.011388
374.6453	0.010060
374.8611	0.010882
375.0770	0.012337
375.2928	0.012780
375.5087	0.013244
375.7246	0.012042
375.9405	0.012991
376.1564	0.011641
376.3724	0.013202
376.5883	0.013771
376.8043	0.013834
377.0203	0.011578
377.2362	0.013919
377.4522	0.012886
377.6682	0.014109
377.8843	0.013877
378.1003	0.012654
378.3164	0.012759
378.5324	0.015353
378.7485	0.014825
378.9646	0.014762
379.1807	0.016112
379.3968	0.015374
379.6129	0.015332
379.8291	0.014404
380.0452	0.014699
380.2614	0.014572
380.4776	0.015542
380.6938	0.016091
380.9100	0.015732
381.1262	0.016365
381.3424	0.015774
381.5587	0.016323
381.7749	0.016048
381.9912	0.016301
382.2075	0.015774
382.4238	0.017630
382.6401	0.017040
382.8564	0.017293
383.0728	0.014446
383.2891	0.016386
383.5055	0.017377
383.7219	0.016934
383.9382	0.017609
384.1546	0.017862
384.3711	0.017524
384.5875	0.016259
384.8039	0.017061
385.0204	0.018874
385.2368	0.016976
385.4533	0.017040
385.6698	0.016808
385.8863	0.017778
386.1028	0.017524
386.3194	0.017356
386.5359	0.018705
386.7525	0.018284
386.9690	0.017883
387.1856	0.020898
387.4022	0.018305
387.6188	0.018895
387.8355	0.019064
388.0521	0.019486
388.2687	0.016850
388.4854	0.019486
388.7021	0.020477
388.9188	0.020519
389.1355	0.019359
389.3522	0.020034
389.5689	0.017841
389.7856	0.021362
390.0024	0.019675
390.2192	0.019275
390.4359	0.020224
390.6527	0.019654
390.8695	0.018748
391.0863	0.020434
391.3032	0.021088
391.5200	0.022269
391.7369	0.021847
391.9537	0.020455
392.1706	0.022227
392.3875	0.022754
392.6044	0.024378
392.8213	0.024251
393.0383	0.025643
393.2552	0.024778
393.4722	0.023155
393.6891	0.023534
393.9061	0.022606
394.1231	0.021278
394.3401	0.022838
394.5572	0.022480
394.7742	0.022986
394.9912	0.023471
395.2083	0.021805
395.4254	0.022712
395.6425	0.022353
395.8596	0.021995
396.0767	0.023829
396.2938	0.023387
396.5109	0.022986
396.7281	0.023450
396.9453	0.024462
397.1624	0.026929
397.3796	0.023007
397.5968	0.026254
397.8140	0.026824
398.0313	0.025854
398.2485	0.026592
398.4658	0.026887
398.6830	0.028595
398.9003	0.027730
399.1176	0.025811
399.3349	0.025664
399.5522	0.025706
399.7696	0.026971
399.9869	0.023956
400.2043	0.025116
400.4216	0.024167
400.6390	0.026507
400.8564	0.025242
401.0738	0.025263
401.2912	0.025537
401.5087	0.025010
401.7261	0.025664
401.9436	0.027983
402.1610	0.027751
402.3785	0.025769
402.5960	0.026381
402.8135	0.025601
403.0310	0.023935
403.2486	0.026086
403.4661	0.024905
403.6837	0.026929
403.9013	0.025284
404.1189	0.026254
404.3365	0.026339
404.5541	0.026170
404.7717	0.027056
404.9893	0.028510
405.2070	0.027836
405.4246	0.030113
405.6423	0.028932
405.8600	0.027667
406.0777	0.027583
406.2954	0.026191
406.5131	0.027878
406.7309	0.026423
406.9486	0.026022
407.1664	0.025643
407.3842	0.025369
407.6020	0.024588
407.8198	0.026992
408.0376	0.027013
408.2554	0.028152
408.4733	0.027309
408.6911	0.025790
408.9090	0.025179
409.1269	0.026360
409.3448	0.025980
409.5627	0.027941
409.7806	0.027056
409.9985	0.026360
410.2165	0.025622
410.4344	0.024884
410.6524	0.025643
410.8704	0.024989
411.0884	0.025811
411.3064	0.027498
411.5244	0.025369
411.7424	0.026296
411.9605	0.025073
412.1785	0.027393
412.3966	0.027794
412.6147	0.025685
412.8328	0.029080
413.0509	0.027751
413.2690	0.027562
413.4871	0.029776
413.7053	0.027287
413.9234	0.029670
414.1416	0.027920
414.3598	0.029417
414.5780	0.026423
414.7962	0.028110
415.0144	0.027920
415.2326	0.029333
415.4509	0.026318
415.6692	0.030240
415.8874	0.028152
416.1057	0.027456
416.3240	0.028300
416.5423	0.025980
416.7606	0.026824
416.9790	0.027330
417.1973	0.024863
417.4157	0.027899
417.6341	0.026402
417.8524	0.026001
418.0708	0.026613
418.2893	0.029354
418.5077	0.027224
418.7261	0.028553
418.9446	0.027330
419.1630	0.029354
419.3815	0.029270
419.6000	0.029291
419.8185	0.026802
420.0370	0.027604
420.2555	0.029101
420.4741	0.030408
420.6926	0.032960
420.9112	0.032348
421.1298	0.031610
421.3483	0.033234
421.5669	0.033951
421.7856	0.033466
422.0042	0.033803
422.2228	0.032201
422.4415	0.032369
422.6601	0.033550
422.8788	0.031547
423.0975	0.033276
423.3162	0.032770
423.5349	0.032032
423.7536	0.030999
423.9724	0.031884
424.1911	0.030935
424.4099	0.030514
424.6287	0.029881
424.8475	0.031083
425.0663	0.029944
425.2851	0.029712
425.5039	0.029080
425.7228	0.029797
425.9416	0.029185
426.1605	0.027477
426.3793	0.028004
426.5982	0.029628
426.8171	0.028953
427.0361	0.030366
427.2550	0.030893
427.4739	0.030914
427.6929	0.032348
427.9118	0.030472
428.1308	0.030092
428.3498	0.030429
428.5688	0.029987
428.7878	0.031188
429.0068	0.029185
429.2259	0.030703
429.4449	0.032327
429.6640	0.032369
429.8831	0.033466
430.1022	0.035532
430.3213	0.035574
430.5404	0.035364
430.7595	0.036755
430.9787	0.033782
