# Wavelength (nm)	Intensity (a.u.)
197.7802	0.000498
197.9842	-0.000199
198.1882	0.000793
198.3922	-0.001106
198.5963	0.000392
198.8003	-0.000642
199.0044	0.000688
199.2085	-0.000009
199.4126	0.001131
199.6168	-0.000705
199.8209	0.001089
200.0251	-0.000030
200.2292	0.000350
200.4334	0.000688
200.6376	0.000667
200.8418	-0.000283
201.0461	0.000772
201.2503	-0.000030
201.4546	0.000266
201.6589	0.000751
201.8631	0.001891
202.0674	-0.000220
202.2718	0.000814
202.4761	-0.000600
202.6805	-0.000157
202.8848	-0.000072
203.0892	0.000772
203.2936	0.001047
203.4980	-0.000473
203.7024	-0.000178
203.9069	0.001427
204.1113	0.000730
204.3158	0.001511
204.5203	0.000646
204.7248	0.000308
204.9293	-0.001085
205.1338	0.000287
205.3384	0.000624
205.5430	0.000308
205.7475	0.000941
205.9521	0.000055
206.1567	0.000983
206.3614	0.000033
206.5660	0.000329
206.7706	0.000287
206.9753	-0.000410
207.1800	0.000582
207.3847	0.000667
207.5894	0.000118
207.7941	0.002165
207.9989	0.001237
208.2036	0.000266
208.4084	0.000751
208.6132	0.000076
208.8180	0.000624
209.0228	0.000941
209.2276	0.001870
209.4325	-0.000494
209.6373	0.000857
209.8422	-0.000410
210.0471	0.000878
210.2520	-0.000642
210.4569	0.001384
210.6618	0.001089
210.8668	0.000245
211.0718	0.001743
211.2767	0.000033
211.4817	0.000624
211.6867	0.001300
211.8918	0.000878
212.0968	0.000962
212.3018	0.000624
212.5069	0.000477
212.7120	0.000245
212.9171	-0.000093
213.1222	-0.000769
213.3273	0.000814
213.5325	0.000139
213.7376	-0.000790
213.9428	-0.000727
214.1480	0.000033
214.3532	0.000751
214.5584	0.002229
214.7636	0.000076
214.9689	0.001553
215.1741	0.001574
215.3794	0.001194
215.5847	0.000751
215.7900	0.002461
215.9953	0.000413
216.2007	0.001363
216.4060	0.001004
216.6114	0.000392
216.8168	-0.001296
217.0222	0.001047
217.2276	-0.000262
217.4330	-0.000368
217.6384	-0.000093
217.8439	0.000012
218.0494	0.000793
218.2548	-0.001106
218.4603	-0.000600
218.6659	0.000836
218.8714	0.000709
219.0769	0.000793
219.2825	-0.000093
219.4881	-0.000072
219.6936	-0.000220
219.8992	0.000287
220.1049	0.001258
220.3105	0.001173
220.5161	0.000477
220.7218	0.001933
220.9275	0.000646
221.1332	0.000371
221.3389	0.000160
221.5446	0.001701
221.7503	-0.000114
221.9561	0.001173
222.1618	0.000899
222.3676	0.000582
222.5734	0.000730
222.7792	0.000223
222.9850	0.000624
223.1909	-0.000579
223.3967	0.000012
223.6026	-0.000325
223.8085	-0.000051
224.0144	0.000139
224.2203	-0.000135
224.4262	-0.000368
224.6322	0.001216
224.8381	0.000434
225.0441	0.000350
225.2501	0.001785
225.4561	-0.000220
225.6621	0.001490
225.8681	0.000477
226.0742	0.001680
226.2802	0.000857
226.4863	0.000223
226.6924	0.001131
226.8985	0.000350
227.1046	0.001089
227.3107	0.000772
227.5169	0.000118
227.7230	0.000857
227.9292	0.001194
228.1354	0.001722
228.3416	-0.000515
228.5478	0.000308
228.7541	-0.000663
228.9603	0.001870
229.1666	-0.000494
229.3729	0.000392
229.5791	-0.000642
229.7855	-0.000347
229.9918	0.002060
230.1981	-0.000199
230.4045	-0.000093
230.6108	0.000202
230.8172	-0.000853
231.0236	0.000245
231.2300	0.001068
231.4364	0.000688
231.6429	0.001342
231.8493	0.000287
232.0558	0.000793
232.2623	0.000434
232.4688	0.000730
232.6753	0.000624
232.8818	0.000160
233.0884	0.001722
233.2949	-0.000072
233.5015	-0.000452
233.7081	0.000139
233.9147	0.000477
234.1213	-0.000241
234.3279	-0.000178
234.5346	-0.000241
234.7413	-0.000304
234.9479	0.000878
235.1546	0.001110
235.3613	0.000223
235.5680	0.000181
235.7748	-0.000642
235.9815	0.000329
236.1883	0.001469
236.3951	-0.000030
236.6018	0.000097
236.8087	0.001110
237.0155	0.001532
237.2223	0.001216
237.4292	0.000287
237.6360	0.001701
237.8429	-0.000431
238.0498	0.000836
238.2567	0.000076
238.4636	0.002018
238.6706	-0.000600
238.8775	0.000667
239.0845	-0.000262
239.2915	0.002292
239.4985	-0.000473
239.7055	0.000118
239.9125	0.000878
240.1195	0.000413
240.3266	-0.001866
240.5337	0.000012
240.7407	0.001701
240.9478	0.000392
241.1549	0.000308
241.3621	0.001490
241.5692	-0.000663
241.7764	0.000941
241.9835	0.000202
242.1907	0.002102
242.3979	-0.000030
242.6051	-0.000241
242.8124	0.001828
243.0196	-0.000093
243.2269	0.001047
243.4341	0.003073
243.6414	0.000709
243.8487	0.001173
244.0560	0.002947
244.2634	0.001047
244.4707	0.000582
244.6781	0.000287
244.8854	-0.000769
245.0928	0.000751
245.3002	-0.000157
245.5076	0.000287
245.7151	-0.001191
245.9225	0.000519
246.1300	0.000519
246.3375	-0.000769
246.5449	-0.000241
246.7524	0.000350
246.9600	-0.000600
247.1675	0.000730
247.3750	0.000181
247.5826	-0.000727
247.7902	-0.000621
247.9978	0.001152
248.2054	0.000245
248.4130	0.000836
248.6206	-0.000558
248.8283	0.001406
249.0359	0.001089
249.2436	0.000012
249.4513	0.000456
249.6590	0.000245
249.8667	-0.000157
250.0745	0.001828
250.2822	0.001131
250.4900	0.000899
250.6978	-0.000515
250.9056	0.000413
251.1134	0.001216
251.3212	0.000033
251.5290	-0.000410
251.7369	0.002419
251.9447	-0.000515
252.1526	0.002313
252.3605	-0.000093
252.5684	-0.001149
252.7763	0.001258
252.9843	0.000814
253.1922	-0.000009
253.4002	0.000498
253.6082	0.000456
253.8162	0.001194
254.0242	0.000899
254.2322	0.000371
254.4402	0.000266
254.6483	0.000688
254.8564	-0.001001
255.0644	0.000223
255.2725	0.000181
255.4806	0.000941
255.6888	-0.000684
255.8969	0.001743
256.1051	0.001532
256.3132	0.000350
256.5214	0.000540
256.7296	0.001828
256.9378	-0.000178
257.1460	0.000033
257.3543	0.000688
257.5625	0.000160
257.7708	-0.000325
257.9791	0.000097
258.1874	0.001089
258.3957	0.000097
258.6040	0.000793
258.8124	0.001279
259.0207	0.000371
259.2291	0.000434
259.4375	0.000688
259.6459	0.000941
259.8543	-0.000072
260.0627	0.000814
260.2711	0.000878
260.4796	0.000857
260.6881	-0.000135
260.8965	0.000181
261.1050	-0.000895
261.3135	0.000793
261.5221	-0.000241
261.7306	0.000202
261.9392	-0.000515
262.1477	0.001722
262.3563	0.000223
262.5649	-0.000241
262.7735	0.001047
262.9822	-0.000705
263.1908	0.000245
263.3995	0.000012
263.6081	0.001173
263.8168	0.000097
264.0255	0.000667
264.2342	-0.000072
264.4429	0.000899
264.6517	0.000287
264.8604	0.000561
265.0692	0.001532
265.2780	0.000709
265.4868	0.000941
265.6956	-0.000199
265.9044	0.000434
266.1133	0.001004
266.3221	0.000160
266.5310	0.000962
266.7399	0.001997
266.9488	-0.001254
267.1577	-0.000558
267.3666	-0.000114
267.5755	0.000983
267.7845	-0.000452
267.9935	0.000350
268.2024	0.000983
268.4114	0.000836
268.6205	0.000603
268.8295	0.001194
269.0385	0.000793
269.2476	0.000772
269.4566	0.001089
269.6657	0.000582
269.8748	-0.000748
270.0839	0.001300
270.2931	0.002081
270.5022	0.001216
270.7114	-0.000769
270.9205	0.000202
271.1297	0.001216
271.3389	0.000413
271.5481	0.000751
271.7573	0.001258
271.9666	0.000223
272.1758	-0.000452
272.3851	-0.001022
272.5944	0.001553
272.8037	-0.001381
273.0130	0.000498
273.2223	0.000434
273.4316	-0.000199
273.6410	0.001004
273.8504	0.000139
274.0597	0.001237
274.2691	0.001216
274.4785	0.000371
274.6880	0.000603
274.8974	0.001807
275.1069	0.000667
275.3163	0.000920
275.5258	-0.000009
275.7353	0.000793
275.9448	0.000350
276.1543	0.000603
276.3639	0.001680
276.5734	-0.000135
276.7830	0.001194
276.9926	0.000730
277.2022	0.001785
277.4118	0.001659
277.6214	0.000245
277.8310	-0.000558
278.0407	-0.000642
278.2503	0.000413
278.4600	0.000667
278.6697	-0.000410
278.8794	0.000582
279.0891	0.000012
279.2989	0.000456
279.5086	0.000097
279.7184	-0.000368
279.9281	0.000413
280.1379	0.000055
280.3477	0.000329
280.5576	0.000857
280.7674	0.000118
280.9772	0.000709
281.1871	0.000392
281.3970	0.000076
281.6069	0.000139
281.8168	0.001490
282.0267	-0.001444
282.2366	0.001004
282.4466	0.000139
282.6565	0.000033
282.8665	0.000223
283.0765	0.000350
283.2865	-0.001888
283.4965	0.001173
283.7065	0.000709
283.9166	-0.000494
284.1266	0.000793
284.3367	0.001785
284.5468	0.000266
284.7569	-0.000135
284.9670	0.000371
285.1771	0.000857
285.3873	-0.000072
285.5974	0.000118
285.8076	0.000245
286.0178	0.001427
286.2280	0.001448
286.4382	0.002039
286.6484	0.000793
286.8587	-0.000347
287.0689	0.000582
287.2792	0.001469
287.4895	0.000878
287.6998	0.000266
287.9101	-0.000452
288.1204	-0.000579
288.3308	0.000582
288.5411	0.000709
288.7515	0.000709
288.9619	0.001047
289.1723	-0.000684
289.3827	0.000899
289.5931	0.001089
289.8035	0.000456
290.0140	0.000245
290.2245	0.000667
290.4349	0.000667
290.6454	0.000857
290.8559	0.000814
291.0665	0.000624
291.2770	0.000329
291.4875	-0.000199
291.6981	-0.000916
291.9087	0.000582
292.1193	0.001089
292.3299	-0.000135
292.5405	0.001406
292.7511	-0.000114
292.9618	0.001131
293.1724	0.000097
293.3831	0.000561
293.5938	-0.000072
293.8045	0.000667
294.0152	0.000160
294.2260	0.000392
294.4367	-0.000431
294.6475	-0.000727
294.8582	0.000751
295.0690	-0.000389
295.2798	0.001279
295.4906	0.000561
295.7015	0.000667
295.9123	0.000899
296.1232	0.001427
296.3340	-0.000431
296.5449	0.000667
296.7558	0.000033
296.9667	0.000772
297.1777	-0.000072
297.3886	0.001321
297.5995	-0.000389
297.8105	0.001068
298.0215	0.000751
298.2325	0.000477
298.4435	-0.000959
298.6545	0.001342
298.8656	0.001110
299.0766	0.000498
299.2877	0.000329
299.4988	0.000667
299.7099	-0.000135
299.9210	0.001701
300.1321	0.000350
300.3432	-0.000093
300.5544	-0.000283
300.7655	-0.000473
300.9767	0.000097
301.1879	0.000730
301.3991	0.000139
301.6103	0.000329
301.8215	0.000097
302.0328	-0.000473
302.2441	0.000730
302.4553	0.002334
302.6666	-0.000494
302.8779	-0.000727
303.0892	-0.000938
303.3006	0.001807
303.5119	0.001532
303.7233	-0.001191
303.9346	0.000772
304.1460	0.000730
304.3574	-0.000811
304.5688	0.001026
304.7803	-0.000262
304.9917	0.000730
305.2031	0.001342
305.4146	0.000076
305.6261	0.001004
305.8376	0.001954
306.0491	0.001089
306.2606	-0.000051
306.4722	-0.000178
306.6837	0.001891
306.8953	0.000688
307.1069	0.000456
307.3184	0.000793
307.5301	0.000983
307.7417	0.000371
307.9533	0.001173
308.1650	0.001089
308.3766	0.001638
308.5883	0.001068
308.8000	-0.000600
309.0117	0.000730
309.2234	0.001912
309.4351	0.000519
309.6469	-0.000072
309.8586	0.000245
310.0704	0.000329
310.2822	-0.001064
310.4940	0.002355
310.7058	-0.000600
310.9176	0.001026
311.1295	-0.000748
311.3413	0.001363
311.5532	0.000941
311.7651	0.000055
311.9770	-0.000347
312.1889	0.002524
312.4008	0.001047
312.6127	-0.000325
312.8247	-0.000241
313.0366	0.001553
313.2486	0.000329
313.4606	0.000519
313.6726	-0.000389
313.8846	-0.000072
314.0967	0.000076
314.3087	0.000561
314.5208	-0.000853
314.7328	0.001490
314.9449	0.000899
315.1570	0.000561
315.3692	0.000012
315.5813	0.001954
315.7934	-0.000621
316.0056	0.000751
316.2177	-0.000241
316.4299	0.001321
316.6421	0.000118
316.8543	0.000751
317.0666	-0.000241
317.2788	0.001152
317.4911	0.000624
317.7033	-0.000705
317.9156	0.000730
318.1279	0.002693
318.3402	0.001089
318.5525	0.001279
318.7649	0.000076
318.9772	0.001342
319.1896	0.000223
319.4019	0.000857
319.6143	-0.000241
319.8267	0.000202
320.0392	-0.000621
320.2516	0.000983
320.4640	0.000814
320.6765	0.001596
320.8890	0.000983
321.1014	0.001638
321.3139	0.000371
321.5265	0.001047
321.7390	0.000814
321.9515	0.002018
322.1641	-0.000895
322.3766	-0.000093
322.5892	-0.000262
322.8018	0.001131
323.0144	0.000857
323.2270	0.000582
323.4397	0.000287
323.6523	0.000667
323.8650	0.000223
324.0777	0.000202
324.2904	-0.000241
324.5031	-0.000135
324.7158	0.000941
324.9285	0.000814
325.1412	-0.000621
325.3540	0.001216
325.5668	0.000371
325.7796	-0.000157
325.9924	-0.000178
326.2052	0.000793
326.4180	0.000329
326.6308	0.001363
326.8437	0.001764
327.0566	0.001237
327.2694	0.000139
327.4823	0.000709
327.6952	0.000160
327.9082	0.001722
328.1211	-0.000347
328.3340	0.000667
328.5470	0.001089
328.7600	0.000582
328.9730	0.000688
329.1860	0.000709
329.3990	0.000836
329.6120	0.001406
329.8251	0.000392
330.0381	0.001237
330.2512	-0.000178
330.4643	-0.000241
330.6774	-0.000135
330.8905	0.001216
331.1036	0.000160
331.3167	0.000097
331.5299	0.000308
331.7431	0.001975
331.9562	0.001490
332.1694	-0.000199
332.3826	0.000814
332.5959	0.000624
332.8091	0.000139
333.0223	-0.000114
333.2356	-0.000347
333.4489	0.000287
333.6622	0.001279
333.8755	0.000582
334.0888	0.000582
334.3021	0.000793
334.5154	0.001532
334.7288	0.000498
334.9422	0.001300
335.1555	0.000793
335.3689	0.000413
335.5823	0.001173
335.7958	0.000709
336.0092	0.001828
336.2227	-0.000051
336.4361	0.000245
336.6496	0.000646
336.8631	0.000519
337.0766	0.001089
337.2901	-0.000241
337.5036	0.001553
337.7172	0.000245
337.9307	-0.000072
338.1443	0.001110
338.3579	0.000329
338.5715	0.000350
338.7851	0.000160
338.9987	-0.000009
339.2124	-0.000051
339.4260	-0.000515
339.6397	0.000287
339.8533	0.000878
340.0670	0.000857
340.2807	0.000899
340.4945	0.001511
340.7082	0.000667
340.9219	-0.000748
341.1357	0.001004
341.3495	-0.000769
341.5633	0.000055
341.7771	0.000181
341.9909	0.002271
342.2047	0.000413
342.4185	0.001870
342.6324	0.000118
342.8463	0.000266
343.0601	-0.000304
343.2740	0.001152
343.4879	0.000751
343.7019	0.000730
343.9158	0.000962
344.1297	-0.000093
344.3437	-0.000558
344.5577	0.000751
344.7717	0.000730
344.9857	0.002292
345.1997	0.000646
345.4137	0.001047
345.6277	0.000118
345.8418	0.000055
346.0559	0.000878
346.2699	0.000561
346.4840	-0.001296
346.6981	-0.000030
346.9123	0.000181
347.1264	0.002039
347.3406	0.000540
347.5547	0.002377
347.7689	-0.000558
347.9831	0.001448
348.1973	-0.000895
348.4115	0.000962
348.6257	-0.001085
348.8400	0.000477
349.0542	0.000266
349.2685	-0.000621
349.4828	-0.000431
349.6971	-0.000135
349.9114	0.001173
350.1257	0.000793
350.3400	0.000836
350.5544	-0.000515
350.7687	-0.001022
350.9831	-0.000220
351.1975	-0.000178
351.4119	0.000793
351.6263	-0.000790
351.8407	0.000603
352.0552	0.000202
352.2696	0.002250
352.4841	-0.000368
352.6986	-0.000304
352.9131	-0.000283
353.1276	0.000477
353.3421	-0.000558
353.5566	0.001532
353.7712	-0.001613
353.9858	0.000709
354.2003	0.001997
354.4149	0.000055
354.6295	-0.000009
354.8441	0.001216
355.0588	0.001553
355.2734	-0.000178
355.4881	0.000033
355.7027	0.001722
355.9174	0.000097
356.1321	0.001216
356.3468	0.001954
356.5615	0.000751
356.7763	0.000498
356.9910	0.000962
357.2058	-0.001296
357.4206	-0.000452
357.6353	0.000857
357.8501	-0.000030
358.0650	-0.000452
358.2798	0.000392
358.4946	-0.000220
358.7095	0.001026
358.9243	-0.000262
359.1392	0.001427
359.3541	0.000076
359.5690	0.000350
359.7839	0.001131
359.9989	-0.000684
360.2138	-0.000494
360.4288	0.001068
360.6438	0.000582
360.8587	-0.000178
361.0737	0.000920
361.2888	0.000709
361.5038	-0.000558
361.7188	-0.000051
361.9339	0.000519
362.1489	0.000245
362.3640	-0.000642
362.5791	0.000287
362.7942	0.000793
363.0093	-0.000684
363.2245	0.000646
363.4396	0.002102
363.6548	-0.000980
363.8699	0.000139
364.0851	-0.000009
364.3003	0.001173
364.5155	-0.000093
364.7308	0.001279
364.9460	-0.000980
365.1612	0.001891
365.3765	0.000245
365.5918	0.000582
365.8071	-0.000938
366.0224	0.000498
366.2377	-0.001001
366.4530	0.000202
366.6684	-0.000410
366.8837	0.001638
367.0991	0.000540
367.3145	0.000245
367.5299	0.000287
367.7453	-0.001254
367.9607	-0.000452
368.1761	0.000413
368.3916	-0.001275
368.6070	0.000624
368.8225	0.001004
369.0380	0.000561
369.2535	0.001194
369.4690	0.001258
369.6845	-0.000135
369.9001	0.000941
370.1156	-0.000980
370.3312	0.001279
370.5468	0.000097
370.7624	0.000878
370.9780	0.000688
371.1936	0.001511
371.4092	0.001448
371.6249	0.000730
371.8405	0.000139
372.0562	0.001574
372.2719	0.000498
372.4876	0.000582
372.7033	0.001321
372.9190	0.000139
373.1348	0.000814
373.3505	0.001384
373.5663	-0.000727
373.7820	0.001532
373.9978	0.000266
374.2136	0.000751
374.4294	0.000181
374.6453	0.000329
374.8611	0.000561
375.0770	0.000498
375.2928	-0.000093
375.5087	0.000582
375.7246	0.001532
375.9405	0.001194
376.1564	0.000118
376.3724	-0.000790
376.5883	0.000582
376.8043	0.002355
377.0203	0.000603
377.2362	0.001342
377.4522	0.000456
377.6682	0.001511
377.8843	0.000751
378.1003	-0.000241
378.3164	0.001363
378.5324	0.000519
378.7485	-0.000537
378.9646	0.001110
379.1807	-0.000157
379.3968	0.000772
379.6129	0.000624
379.8291	0.001553
380.0452	0.000667
380.2614	0.001047
380.4776	0.000751
380.6938	0.002039
380.9100	0.000012
381.1262	0.001237
381.3424	0.000540
381.5587	0.000920
381.7749	-0.000135
381.9912	0.001089
382.2075	-0.000262
382.4238	0.000561
382.6401	0.001173
382.8564	0.000751
383.0728	-0.000811
383.2891	0.000160
383.5055	0.000118
383.7219	0.001173
383.9382	0.000266
384.1546	0.000709
384.3711	-0.000895
384.5875	0.001448
384.8039	0.001342
385.0204	0.002271
385.2368	0.001047
385.4533	0.000519
385.6698	-0.000916
385.8863	0.000519
386.1028	0.000751
386.3194	0.000983
386.5359	0.001131
386.7525	0.000097
386.9690	0.000688
387.1856	0.002820
387.4022	0.000941
387.6188	0.000983
387.8355	0.001237
388.0521	0.001849
388.2687	-0.000748
388.4854	0.000012
388.7021	0.001912
388.9188	0.001026
389.1355	0.001342
389.3522	0.001237
389.5689	0.001173
389.7856	0.001194
390.0024	0.001448
390.2192	0.000857
390.4359	0.002102
390.6527	0.001997
390.8695	0.000772
391.0863	0.002947
391.3032	0.001173
391.5200	0.002187
391.7369	0.002778
391.9537	0.000308
392.1706	0.001975
392.3875	0.002377
392.6044	0.004086
392.8213	0.002693
393.0383	0.003749
393.2552	0.002968
393.4722	0.001406
393.6891	0.004825
393.9061	0.002461
394.1231	0.003812
394.3401	0.002461
394.5572	0.002904
394.7742	0.001574
394.9912	0.006176
395.2083	0.004023
395.4254	0.005691
395.6425	0.003854
395.8596	0.004108
396.0767	0.004340
396.2938	0.006134
396.5109	0.003474
396.7281	0.006155
396.9453	0.005015
397.1624	0.004720
397.3796	0.005374
397.5968	0.005670
397.8140	0.006725
398.0313	0.005817
398.2485	0.006894
398.4658	0.006113
398.6830	0.006345
398.9003	0.008097
399.1176	0.005606
399.3349	0.008414
399.5522	0.007379
399.7696	0.007168
399.9869	0.006767
400.2043	0.007295
400.4216	0.008794
400.6390	0.007548
400.8564	0.008034
401.0738	0.007358
401.2912	0.006345
401.5087	0.007464
401.7261	0.007907
401.9436	0.007506
402.1610	0.007105
402.3785	0.008477
402.5960	0.009300
402.8135	0.008604
403.0310	0.009132
403.2486	0.007253
403.4661	0.008920
403.6837	0.009005
403.9013	0.008519
404.1189	0.008730
404.3365	0.009300
404.5541	0.009913
404.7717	0.009976
404.9893	0.010208
405.2070	0.010736
405.4246	0.012319
405.6423	0.010820
405.8600	0.012171
406.0777	0.012467
406.2954	0.010314
406.5131	0.010905
406.7309	0.011369
406.9486	0.011411
407.1664	0.011242
407.3842	0.011327
407.6020	0.010968
407.8198	0.011939
408.0376	0.010461
408.2554	0.012425
408.4733	0.011559
408.6911	0.012488
408.9090	0.011728
409.1269	0.013184
409.3448	0.012045
409.5627	0.010905
409.7806	0.014134
409.9985	0.012572
410.2165	0.013839
410.4344	0.012847
410.6524	0.014451
410.8704	0.013881
411.0884	0.014092
411.3064	0.013881
411.5244	0.013079
411.7424	0.013248
411.9605	0.015127
412.1785	0.016604
412.3966	0.014219
412.6147	0.015317
412.8328	0.014261
413.0509	0.016435
413.2690	0.013269
413.4871	0.015232
413.7053	0.015507
413.9234	0.014282
414.1416	0.014557
414.3598	0.016414
414.5780	0.015549
414.7962	0.015950
415.0144	0.015295
415.2326	0.017301
415.4509	0.018145
415.6692	0.015950
415.8874	0.014873
416.1057	0.016921
416.3240	0.016309
416.5423	0.015190
416.7606	0.017026
416.9790	0.015549
417.1973	0.015359
417.4157	0.018821
417.6341	0.016456
417.8524	0.015591
418.0708	0.017343
418.2893	0.017723
418.5077	0.017385
418.7261	0.016351
418.9446	0.018251
419.1630	0.017301
419.3815	0.018187
419.6000	0.017829
419.8185	0.018483
420.0370	0.019306
420.2555	0.020383
420.4741	0.020573
420.6926	0.020594
420.9112	0.020953
421.1298	0.020362
421.3483	0.023211
421.5669	0.022346
421.7856	0.021860
422.0042	0.022958
422.2228	0.023232
422.4415	0.020805
422.6601	0.021692
422.8788	0.022198
423.0975	0.023317
423.3162	0.022979
423.5349	0.021438
423.7536	0.022409
423.9724	0.024119
424.1911	0.021565
424.4099	0.022409
424.6287	0.021966
424.8475	0.021755
425.0663	0.020193
425.2851	0.021713
425.5039	0.022916
425.7228	0.021333
425.9416	0.019749
426.1605	0.020552
426.3793	0.021860
426.5982	0.019876
426.8171	0.020277
427.0361	0.021037
427.2550	0.021797
427.4739	0.021692
427.6929	0.022451
427.9118	0.021924
428.1308	0.022451
428.3498	0.022747
428.5688	0.023634
428.7878	0.023528
429.0068	0.022578
429.2259	0.021058
429.4449	0.020383
