# Wavelength (nm)	Intensity (a.u.)
197.7802	0.000519
197.9842	-0.000410
198.1882	0.000793
198.3922	0.000434
198.5963	-0.000515
198.8003	-0.000557
199.0044	0.001088
199.2085	-0.001422
199.4126	0.000624
199.6168	-0.000916
199.8209	-0.000536
200.0251	0.000624
200.2292	0.000434
200.4334	0.000793
200.6376	0.000308
200.8418	-0.000199
201.0461	-0.000557
201.2503	0.000434
201.4546	-0.000220
201.6589	-0.000536
201.8631	0.000160
202.0674	-0.000726
202.2718	0.002080
202.4761	-0.000536
202.6805	-0.000114
202.8848	0.001637
203.0892	0.001046
203.2936	0.000202
203.4980	-0.000663
203.7024	0.000076
203.9069	0.001067
204.1113	0.001130
204.3158	-0.000199
204.5203	-0.000557
204.7248	0.000708
204.9293	-0.000241
205.1338	0.000940
205.3384	0.001721
205.5430	-0.000557
205.7475	-0.000051
205.9521	-0.000515
206.1567	0.000603
206.3614	-0.000578
206.5660	0.000160
206.7706	-0.000599
206.9753	-0.000473
207.1800	-0.001464
207.3847	0.000265
207.5894	-0.001148
207.7941	-0.000304
207.9989	0.000434
208.2036	-0.000241
208.4084	0.000392
208.6132	0.001004
208.8180	0.000772
209.0228	-0.000621
209.2276	0.000708
209.4325	0.000687
209.6373	0.001109
209.8422	-0.000009
210.0471	-0.000093
210.2520	0.000561
210.4569	-0.000621
210.6618	0.000139
210.8668	0.000202
211.0718	0.000730
211.2767	0.000519
211.4817	0.000139
211.6867	0.000434
211.8918	-0.000178
212.0968	0.000624
212.3018	0.000730
212.5069	0.002143
212.7120	0.000624
212.9171	0.000160
213.1222	0.000329
213.3273	0.001025
213.5325	0.000160
213.7376	-0.000009
213.9428	0.000898
214.1480	-0.000452
214.3532	-0.000684
214.5584	0.001362
214.7636	-0.000726
214.9689	-0.000853
215.1741	-0.001380
215.3794	0.000540
215.5847	-0.000030
215.7900	0.000624
215.9953	0.000624
216.2007	0.000645
216.4060	-0.000621
216.6114	0.000519
216.8168	-0.001190
217.0222	-0.000473
217.2276	-0.000093
217.4330	0.001004
217.6384	-0.000135
217.8439	-0.000051
218.0494	-0.001717
218.2548	0.000497
218.4603	0.000371
218.6659	0.000666
218.8714	-0.000747
219.0769	-0.001085
219.2825	-0.000599
219.4881	0.001869
219.6936	0.000097
219.8992	0.000308
220.1049	0.001573
220.3105	-0.000494
220.5161	0.001510
220.7218	0.001615
220.9275	-0.000093
221.1332	-0.000156
221.3389	0.000329
221.5446	0.000540
221.7503	0.000898
221.9561	-0.000262
222.1618	0.000287
222.3676	-0.000642
222.5734	0.000160
222.7792	0.000202
222.9850	0.000223
223.1909	0.000244
223.3967	0.000202
223.6026	0.000687
223.8085	-0.000642
224.0144	0.002185
224.2203	0.000898
224.4262	-0.000051
224.6322	0.001257
224.8381	0.000350
225.0441	-0.000304
225.2501	0.000223
225.4561	-0.000494
225.6621	0.000772
225.8681	-0.000789
226.0742	-0.000241
226.2802	0.000540
226.4863	0.000561
226.6924	-0.001148
226.8985	0.001278
227.1046	-0.001106
227.3107	0.001763
227.5169	-0.001317
227.7230	-0.000684
227.9292	-0.000346
228.1354	-0.000114
228.3416	0.000287
228.5478	0.001046
228.7541	-0.000979
228.9603	-0.000051
229.1666	0.000118
229.3729	-0.000241
229.5791	0.000687
229.7855	0.000097
229.9918	-0.000009
230.1981	0.000772
230.4045	-0.000346
230.6108	0.000329
230.8172	0.000181
231.0236	0.000624
231.2300	-0.000895
231.4364	0.000371
231.6429	-0.001422
231.8493	-0.000262
232.0558	0.000329
232.2623	0.000751
232.4688	0.000265
232.6753	-0.000831
232.8818	0.000392
233.0884	0.001637
233.2949	-0.000262
233.5015	0.001151
233.7081	0.001004
233.9147	0.000223
234.1213	0.001025
234.3279	0.000919
234.5346	-0.000051
234.7413	0.000455
234.9479	0.000476
235.1546	0.001362
235.3613	-0.001042
235.5680	-0.000199
235.7748	0.001405
235.9815	-0.000135
236.1883	0.000012
236.3951	0.000814
236.6018	0.000519
236.8087	0.001447
237.0155	0.000054
237.2223	0.000054
237.4292	-0.000199
237.6360	-0.000009
237.8429	-0.000831
238.0498	0.000666
238.2567	-0.000536
238.4636	-0.000030
238.6706	0.001215
238.8775	0.001151
239.0845	-0.001401
239.2915	0.000730
239.4985	0.001468
239.7055	0.001383
239.9125	-0.001464
240.1195	0.002185
240.3266	-0.000747
240.5337	0.001341
240.7407	0.001405
240.9478	-0.000642
241.1549	-0.000283
241.3621	0.001932
241.5692	0.000076
241.7764	0.000751
241.9835	0.000540
242.1907	0.001573
242.3979	0.000540
242.6051	0.000814
242.8124	-0.000831
243.0196	0.000118
243.2269	0.000856
243.4341	-0.000663
243.6414	-0.001021
243.8487	0.000455
244.0560	-0.000093
244.2634	0.002058
244.4707	0.001531
244.6781	0.000497
244.8854	-0.000452
245.0928	0.000392
245.3002	0.001088
245.5076	0.001130
245.7151	-0.001148
245.9225	0.000223
246.1300	-0.000178
246.3375	0.000898
246.5449	-0.000663
246.7524	0.001067
246.9600	-0.000030
247.1675	0.000962
247.3750	-0.000283
247.5826	0.000033
247.7902	-0.000241
247.9978	0.000666
248.2054	-0.001232
248.4130	0.001362
248.6206	0.000645
248.8283	0.000835
249.0359	0.001320
249.2436	-0.000156
249.4513	0.000519
249.6590	0.000118
249.8667	0.000687
250.0745	0.000202
250.2822	-0.000030
250.4900	-0.000515
250.6978	-0.001021
250.9056	0.001468
251.1134	-0.000178
251.3212	-0.000093
251.5290	0.000139
251.7369	0.001046
251.9447	0.000645
252.1526	-0.000283
252.3605	0.000582
252.5684	0.000371
252.7763	-0.000663
252.9843	0.001088
253.1922	0.000371
253.4002	0.000497
253.6082	0.000730
253.8162	0.000160
254.0242	-0.001380
254.2322	0.000118
254.4402	0.000287
254.6483	-0.000536
254.8564	-0.000367
255.0644	0.000983
255.2725	-0.000874
255.4806	-0.000283
255.6888	0.000012
255.8969	0.001067
256.1051	0.000519
256.3132	0.000371
256.5214	0.000265
256.7296	-0.000789
256.9378	0.001742
257.1460	0.000455
257.3543	-0.001000
257.5625	-0.000156
257.7708	-0.000325
257.9791	-0.000072
258.1874	0.000814
258.3957	0.000097
258.6040	-0.000621
258.8124	-0.000642
259.0207	0.000898
259.2291	0.000561
259.4375	0.000139
259.6459	0.001784
259.8543	0.000392
260.0627	0.001489
260.2711	-0.000452
260.4796	0.000139
260.6881	-0.000030
260.8965	0.001236
261.1050	-0.000494
261.3135	0.000434
261.5221	0.000455
261.7306	-0.000388
261.9392	-0.000473
262.1477	0.001573
262.3563	0.000160
262.5649	0.001299
262.7735	0.000540
262.9822	0.000244
263.1908	-0.000135
263.3995	0.001615
263.6081	0.001362
263.8168	0.000054
264.0255	-0.001317
264.2342	0.001236
264.4429	-0.000178
264.6517	-0.000473
264.8604	0.000772
265.0692	0.000265
265.2780	0.000265
265.4868	-0.000726
265.6956	0.000244
265.9044	-0.000452
266.1133	-0.000241
266.3221	0.000519
266.5310	0.001004
266.7399	0.000561
266.9488	0.000223
267.1577	0.000202
267.3666	-0.000135
267.5755	0.000772
267.7845	0.000940
267.9935	-0.001169
268.2024	-0.000536
268.4114	0.000983
268.6205	-0.001401
268.8295	0.000097
269.0385	-0.001422
269.2476	0.001615
269.4566	0.001278
269.6657	0.000666
269.8748	0.000202
270.0839	-0.000473
270.2931	-0.001401
270.5022	0.000540
270.7114	-0.000621
270.9205	0.000033
271.1297	0.000076
271.3389	0.001194
271.5481	-0.000726
271.7573	0.001890
271.9666	0.000708
272.1758	0.001257
272.3851	0.000434
272.5944	0.000666
272.8037	0.000497
273.0130	0.000054
273.2223	-0.000726
273.4316	0.000772
273.6410	-0.000705
273.8504	0.002037
274.0597	0.000097
274.2691	0.001953
274.4785	0.000097
274.6880	0.000708
274.8974	-0.001781
275.1069	0.000708
275.3163	0.000076
275.5258	0.001194
275.7353	0.000814
275.9448	0.000329
276.1543	-0.000114
276.3639	0.000856
276.5734	-0.001907
276.7830	-0.000241
276.9926	-0.001971
277.2022	0.000076
277.4118	0.000624
277.6214	0.001721
277.8310	-0.000030
278.0407	-0.000747
278.2503	0.000603
278.4600	-0.000346
278.6697	0.000497
278.8794	0.000624
279.0891	0.000097
279.2989	0.000392
279.5086	-0.000410
279.7184	0.001278
279.9281	0.000708
280.1379	0.000244
280.3477	0.000582
280.5576	0.000223
280.7674	-0.000304
280.9772	-0.000178
281.1871	0.000392
281.3970	0.001151
281.6069	0.001194
281.8168	0.000687
282.0267	-0.001148
282.2366	0.000877
282.4466	0.000497
282.6565	0.000856
282.8665	-0.001675
283.0765	0.001236
283.2865	-0.000621
283.4965	0.001004
283.7065	-0.000072
283.9166	-0.000367
284.1266	0.000097
284.3367	0.001573
284.5468	-0.000452
284.7569	0.000940
284.9670	0.001046
285.1771	0.001151
285.3873	-0.000452
285.5974	-0.000621
285.8076	-0.000937
286.0178	-0.000262
286.2280	-0.000156
286.4382	0.001510
286.6484	-0.000410
286.8587	0.000940
287.0689	-0.001064
287.2792	0.001594
287.4895	0.000434
287.6998	0.000645
287.9101	-0.000072
288.1204	0.000540
288.3308	0.000392
288.5411	0.001215
288.7515	-0.000494
288.9619	-0.000156
289.1723	0.000730
289.3827	0.000856
289.5931	0.000497
289.8035	0.000898
290.0140	-0.000874
290.2245	0.000054
290.4349	-0.000325
290.6454	0.000265
290.8559	0.000413
291.0665	0.001067
291.2770	0.001784
291.4875	0.001236
291.6981	-0.001317
291.9087	0.000308
292.1193	-0.000599
292.3299	0.001594
292.5405	0.000434
292.7511	0.000730
292.9618	-0.001127
293.1724	-0.000199
293.3831	0.000392
293.5938	0.000561
293.8045	-0.000262
294.0152	0.000181
294.2260	0.000708
294.4367	-0.001127
294.6475	-0.001106
294.8582	0.000223
295.0690	0.001615
295.2798	-0.000831
295.4906	-0.000072
295.7015	-0.000304
295.9123	0.000624
296.1232	0.000540
296.3340	-0.000853
296.5449	0.001004
296.7558	-0.000009
296.9667	0.000054
297.1777	0.000287
297.3886	0.001194
297.5995	-0.000853
297.8105	0.001299
298.0215	0.000793
298.2325	0.000940
298.4435	-0.000557
298.6545	0.000181
298.8656	-0.000367
299.0766	-0.000178
299.2877	-0.000156
299.4988	0.000033
299.7099	0.000877
299.9210	0.000455
300.1321	0.000350
300.3432	0.000983
300.5544	-0.000452
300.7655	0.001510
300.9767	-0.001021
301.1879	-0.000199
301.3991	0.000751
301.6103	-0.000726
301.8215	-0.000494
302.0328	0.001594
302.2441	0.000540
302.4553	-0.000262
302.6666	-0.000325
302.8779	0.000476
303.0892	-0.001190
303.3006	-0.000241
303.5119	0.000181
303.7233	0.000497
303.9346	0.000265
304.1460	0.001151
304.3574	-0.001232
304.5688	0.000455
304.7803	0.000371
304.9917	-0.000304
305.2031	-0.000410
305.4146	0.000940
305.6261	-0.000367
305.8376	0.000371
306.0491	-0.000388
306.2606	0.000329
306.4722	0.000666
306.6837	0.000434
306.8953	-0.000557
307.1069	0.001004
307.3184	0.000223
307.5301	0.000645
307.7417	0.000540
307.9533	0.000940
308.1650	-0.000093
308.3766	0.000434
308.5883	0.002122
308.8000	0.000202
309.0117	-0.000621
309.2234	-0.000726
309.4351	0.000434
309.6469	0.000772
309.8586	0.000751
310.0704	-0.000135
310.2822	0.000160
310.4940	0.000561
310.7058	0.000139
310.9176	0.000455
311.1295	-0.000621
311.3413	0.001890
311.5532	-0.001422
311.7651	-0.000009
311.9770	0.001046
312.1889	0.001658
312.4008	0.000962
312.6127	0.001763
312.8247	-0.000199
313.0366	0.000160
313.2486	-0.000388
313.4606	0.000371
313.6726	-0.000199
313.8846	0.000308
314.0967	0.000139
314.3087	0.001046
314.5208	0.000012
314.7328	0.000033
314.9449	-0.000705
315.1570	0.000962
315.3692	-0.000810
315.5813	0.000097
315.7934	-0.000367
316.0056	0.000434
316.2177	0.000962
316.4299	0.001025
316.6421	-0.000747
316.8543	0.000076
317.0666	-0.001127
317.2788	-0.000030
317.4911	-0.000093
317.7033	0.001405
317.9156	0.001194
318.1279	0.000012
318.3402	0.000434
318.5525	0.000540
318.7649	0.000856
318.9772	-0.000325
319.1896	0.000392
319.4019	0.001573
319.6143	-0.000473
319.8267	0.000455
320.0392	0.000244
320.2516	0.000582
320.4640	0.000160
320.6765	0.000160
320.8890	0.000202
321.1014	0.000856
321.3139	-0.000093
321.5265	0.001468
321.7390	-0.000241
321.9515	0.001109
322.1641	-0.000536
322.3766	0.000898
322.5892	0.000940
322.8018	0.000265
323.0144	-0.000009
323.2270	0.001025
323.4397	0.000097
323.6523	0.000455
323.8650	-0.000346
324.0777	0.001088
324.2904	-0.000367
324.5031	0.001341
324.7158	-0.000283
324.9285	0.000413
325.1412	0.000392
325.3540	0.001046
325.5668	-0.000072
325.7796	0.000202
325.9924	0.000202
326.2052	0.001025
326.4180	0.000898
326.6308	-0.000388
326.8437	0.000413
327.0566	-0.000093
327.2694	-0.000072
327.4823	0.000012
327.6952	-0.001127
327.9082	-0.000220
328.1211	0.000519
328.3340	0.000181
328.5470	0.000455
328.7600	-0.000895
328.9730	-0.000578
329.1860	-0.000262
329.3990	0.001067
329.6120	0.000751
329.8251	0.001468
330.0381	-0.001781
330.2512	0.000054
330.4643	0.000708
330.6774	-0.001823
330.8905	0.000054
331.1036	0.001341
331.3167	0.000919
331.5299	-0.001422
331.7431	-0.000684
331.9562	-0.000346
332.1694	0.000476
332.3826	0.000033
332.5959	0.000308
332.8091	-0.000705
333.0223	-0.000156
333.2356	0.000814
333.4489	0.000940
333.6622	-0.000874
333.8755	0.000265
334.0888	0.002016
334.3021	-0.000199
334.5154	-0.000663
334.7288	-0.000156
334.9422	0.000012
335.1555	-0.000072
335.3689	-0.000051
335.5823	0.000455
335.7958	-0.000494
336.0092	-0.000199
336.2227	-0.000642
336.4361	-0.000220
336.6496	0.000033
336.8631	-0.000895
337.0766	0.000265
337.2901	-0.000325
337.5036	-0.001549
337.7172	0.000603
337.9307	-0.000030
338.1443	0.000772
338.3579	0.000202
338.5715	0.002291
338.7851	-0.001274
338.9987	-0.000388
339.2124	0.000329
339.4260	0.000603
339.6397	-0.000262
339.8533	0.000856
340.0670	0.000097
340.2807	0.001320
340.4945	0.000350
340.7082	0.000181
340.9219	-0.000494
341.1357	0.000645
341.3495	-0.000135
341.5633	-0.000178
341.7771	0.000624
341.9909	-0.000072
342.2047	-0.000093
342.4185	0.000856
342.6324	0.000160
342.8463	0.001151
343.0601	-0.001401
343.2740	0.000814
343.4879	0.000983
343.7019	0.000624
343.9158	0.000181
344.1297	-0.001021
344.3437	0.000012
344.5577	0.000244
344.7717	0.001299
344.9857	0.001510
345.1997	-0.000388
345.4137	-0.000958
345.6277	0.001004
345.8418	0.000519
346.0559	0.000371
346.2699	-0.000388
346.4840	0.000139
346.6981	-0.000135
346.9123	-0.000262
347.1264	0.001489
347.3406	-0.001317
347.5547	-0.000705
347.7689	0.000350
347.9831	-0.000621
348.1973	-0.000367
348.4115	0.000582
348.6257	-0.001528
348.8400	0.001278
349.0542	-0.000473
349.2685	0.000962
349.4828	0.001383
349.6971	0.000202
349.9114	-0.001021
350.1257	-0.000072
350.3400	0.000202
350.5544	0.000730
350.7687	0.000708
350.9831	0.000645
351.1975	0.000097
351.4119	-0.000072
351.6263	-0.000621
351.8407	0.000265
352.0552	-0.000431
352.2696	0.000265
352.4841	-0.000452
352.6986	0.000392
352.9131	-0.000916
353.1276	0.001426
353.3421	-0.000178
353.5566	0.000350
353.7712	-0.000072
353.9858	-0.001021
354.2003	0.000012
354.4149	-0.000051
354.6295	-0.000621
354.8441	0.000350
355.0588	0.000476
355.2734	-0.000789
355.4881	0.000392
355.7027	-0.000452
355.9174	-0.000156
356.1321	0.001658
356.3468	-0.000473
356.5615	0.000350
356.7763	-0.000979
356.9910	-0.000114
357.2058	0.000519
357.4206	0.001383
357.6353	-0.000747
357.8501	-0.001042
358.0650	0.000287
358.2798	0.000519
358.4946	-0.001591
358.7095	0.000582
358.9243	0.001278
359.1392	0.000012
359.3541	-0.000262
359.5690	0.000118
359.7839	-0.000663
359.9989	0.001489
360.2138	-0.000051
360.4288	0.000455
360.6438	-0.000178
360.8587	0.000624
361.0737	-0.000220
361.2888	0.001320
361.5038	-0.000199
361.7188	0.000455
361.9339	0.000223
362.1489	0.000097
362.3640	-0.000810
362.5791	0.000730
362.7942	0.000687
363.0093	0.001594
363.2245	0.000308
363.4396	0.000940
363.6548	-0.000388
363.8699	-0.000030
364.0851	-0.000009
364.3003	-0.000051
364.5155	-0.000515
364.7308	0.000118
364.9460	0.000497
365.1612	-0.000199
365.3765	0.000392
365.5918	-0.000072
365.8071	-0.000051
366.0224	0.000561
366.2377	0.001615
366.4530	0.000371
366.6684	-0.000093
366.8837	0.000835
367.0991	-0.000030
367.3145	0.000898
367.5299	-0.000093
367.7453	0.000160
367.9607	0.000371
368.1761	0.000434
368.3916	0.001405
368.6070	0.000223
368.8225	0.000308
369.0380	0.001848
369.2535	-0.001000
369.4690	0.001700
369.6845	0.000202
369.9001	0.000476
370.1156	-0.000325
370.3312	0.000666
370.5468	0.001383
370.7624	0.000392
370.9780	-0.001148
371.1936	0.001362
371.4092	0.001215
371.6249	0.000202
371.8405	-0.000388
372.0562	-0.000325
372.2719	0.000012
372.4876	0.000033
372.7033	-0.000241
372.9190	-0.000410
373.1348	-0.000705
373.3505	0.000898
373.5663	-0.000895
373.7820	0.001763
373.9978	-0.000093
374.2136	-0.000853
374.4294	0.000434
374.6453	0.000244
374.8611	-0.000578
375.0770	0.000455
375.2928	-0.000578
375.5087	0.000919
375.7246	0.001046
375.9405	0.000814
376.1564	0.000054
376.3724	0.001025
376.5883	-0.000030
376.8043	0.000983
377.0203	0.000287
377.2362	0.001067
377.4522	-0.000642
377.6682	0.001299
377.8843	0.000012
378.1003	0.000118
378.3164	-0.001190
378.5324	0.000265
378.7485	-0.000621
378.9646	0.000497
379.1807	0.000877
379.3968	-0.000599
379.6129	-0.000410
379.8291	-0.000030
380.0452	0.000603
380.2614	-0.000768
380.4776	-0.000346
380.6938	0.001299
380.9100	-0.000346
381.1262	0.001046
381.3424	-0.000346
381.5587	0.000582
381.7749	-0.000599
381.9912	0.000329
382.2075	0.000160
382.4238	-0.000452
382.6401	-0.000072
382.8564	0.001848
383.0728	-0.000705
383.2891	-0.000726
383.5055	-0.000262
383.7219	-0.000431
383.9382	-0.000410
384.1546	0.000054
384.3711	0.000835
384.5875	-0.000114
384.8039	0.000160
385.0204	0.000962
385.2368	0.001362
385.4533	-0.000220
385.6698	-0.000831
385.8863	0.000181
386.1028	0.000645
386.3194	0.001046
386.5359	0.001236
386.7525	0.001615
386.9690	0.000856
387.1856	0.001299
387.4022	0.001299
387.6188	0.001995
387.8355	0.000940
388.0521	0.001510
388.2687	0.001405
388.4854	0.002058
388.7021	0.001236
388.9188	0.001383
389.1355	0.001447
389.3522	0.001932
389.5689	0.001362
389.7856	0.003472
390.0024	0.000835
390.2192	0.004020
390.4359	0.001489
390.6527	0.003936
390.8695	0.003662
391.0863	0.003999
391.3032	0.002734
391.5200	0.002417
391.7369	0.005539
391.9537	0.004147
392.1706	0.003134
392.3875	0.003641
392.6044	0.004674
392.8213	0.004991
393.0383	0.005159
393.2552	0.005602
393.4722	0.005623
393.6891	0.006172
393.9061	0.006066
394.1231	0.005434
394.3401	0.005476
394.5572	0.006720
394.7742	0.006003
394.9912	0.007649
395.2083	0.005771
395.4254	0.007311
395.6425	0.007754
395.8596	0.006974
396.0767	0.008281
396.2938	0.007691
396.5109	0.007754
396.7281	0.008893
396.9453	0.010074
397.1624	0.008450
397.3796	0.009568
397.5968	0.010728
397.8140	0.012247
398.0313	0.010538
398.2485	0.010370
398.4658	0.011994
398.6830	0.011382
398.9003	0.012437
399.1176	0.012078
399.3349	0.014462
399.5522	0.012437
399.7696	0.013007
399.9869	0.012226
400.2043	0.014357
400.4216	0.013998
400.6390	0.013175
400.8564	0.013133
401.0738	0.013682
401.2912	0.015390
401.5087	0.014736
401.7261	0.012880
401.9436	0.015643
402.1610	0.014314
402.3785	0.015643
402.5960	0.015221
402.8135	0.016508
403.0310	0.014989
403.2486	0.016002
403.4661	0.015770
403.6837	0.015960
403.9013	0.016234
404.1189	0.017036
404.3365	0.016804
404.5541	0.016635
404.7717	0.017078
404.9893	0.018154
405.2070	0.018997
405.4246	0.018681
405.6423	0.017479
405.8600	0.019588
406.0777	0.019103
406.2954	0.019883
406.5131	0.018786
406.7309	0.019124
406.9486	0.016656
407.1664	0.018259
407.3842	0.018829
407.6020	0.017711
407.8198	0.017711
408.0376	0.017900
408.2554	0.018639
408.4733	0.019736
408.6911	0.019356
408.9090	0.020073
409.1269	0.019778
409.3448	0.020200
409.5627	0.020537
409.7806	0.020812
409.9985	0.020137
410.2165	0.018618
410.4344	0.019968
410.6524	0.020200
410.8704	0.020833
411.0884	0.019736
411.3064	0.021086
411.5244	0.020980
411.7424	0.021149
411.9605	0.020812
412.1785	0.022499
412.3966	0.021782
412.6147	0.021592
412.8328	0.021022
413.0509	0.021297
413.2690	0.023343
413.4871	0.021761
413.7053	0.020200
413.9234	0.020833
414.1416	0.021297
414.3598	0.021719
414.5780	0.020875
414.7962	0.022731
415.0144	0.022858
415.2326	0.021550
415.4509	0.023216
415.6692	0.022035
415.8874	0.023069
416.1057	0.022668
416.3240	0.021782
416.5423	0.021824
416.7606	0.022267
416.9790	0.021634
417.1973	0.021044
417.4157	0.021086
417.6341	0.023554
417.8524	0.020622
418.0708	0.023069
418.2893	0.022900
418.5077	0.021465
418.7261	0.024461
418.9446	0.021972
419.1630	0.023301
419.3815	0.022583
419.6000	0.023786
419.8185	0.025178
420.0370	0.025537
420.2555	0.024123
420.4741	0.024587
420.6926	0.022900
420.9112	0.023111
421.1298	0.025769
421.3483	0.025663
421.5669	0.027773
421.7856	0.028595
422.0042	0.026802
422.2228	0.028026
422.4415	0.030135
422.6601	0.025600
422.8788	0.027562
423.0975	0.026887
423.3162	0.025769
423.5349	0.028384
423.7536	0.026929
423.9724	0.025284
424.1911	0.025916
424.4099	0.024841
424.6287	0.024313
424.8475	0.024250
425.0663	0.023723
425.2851	0.024440
425.5039	0.024883
425.7228	0.023512
425.9416	0.023849
426.1605	0.023723
426.3793	0.022330
426.5982	0.022520
426.8171	0.022520
427.0361	0.023491
427.2550	0.021613
427.4739	0.024672
427.6929	0.025073
427.9118	0.025516
428.1308	0.025157
