# Wavelength (nm)	Intensity (a.u.)
197.7802	0.001937
197.9842	0.000904
198.1882	0.000545
198.3922	0.000756
198.5963	0.000988
198.8003	0.000840
199.0044	0.001811
199.2085	0.000355
199.4126	0.000714
199.6168	0.000186
199.8209	0.000988
200.0251	-0.001079
200.2292	0.000714
200.4334	-0.000489
200.6376	0.000714
200.8418	0.000524
201.0461	0.002148
201.2503	0.001916
201.4546	0.001030
201.6589	0.000861
201.8631	0.000693
202.0674	0.000144
202.2718	0.000440
202.4761	0.001283
202.6805	0.000925
202.8848	0.000714
203.0892	0.001072
203.2936	0.000925
203.4980	0.000440
203.7024	0.001452
203.9069	0.001030
204.1113	0.000503
204.3158	0.001283
204.5203	-0.000468
204.7248	0.001473
204.9293	-0.000109
205.1338	0.000355
205.3384	0.001410
205.5430	0.001705
205.7475	0.000018
205.9521	0.001072
206.1567	0.001621
206.3614	0.002043
206.5660	0.001283
206.7706	0.002739
206.9753	0.001115
207.1800	-0.000257
207.3847	0.000798
207.5894	-0.000004
207.7941	0.000840
207.9989	0.000186
208.2036	-0.001818
208.4084	-0.000383
208.6132	0.001473
208.8180	-0.000130
209.0228	-0.000341
209.2276	0.000461
209.4325	-0.000657
209.6373	0.000039
209.8422	0.001157
210.0471	0.002190
210.2520	0.000229
210.4569	0.001494
210.6618	0.001537
210.8668	0.000861
211.0718	0.001684
211.2767	0.002591
211.4817	0.000904
211.6867	0.000482
211.8918	0.000524
212.0968	0.000861
212.3018	0.000482
212.5069	0.000440
212.7120	-0.000025
212.9171	-0.000383
213.1222	0.001980
213.3273	0.000440
213.5325	0.000229
213.7376	0.000503
213.9428	0.000629
214.1480	0.000883
214.3532	0.000861
214.5584	0.000672
214.7636	0.000376
214.9689	0.001220
215.1741	0.000566
215.3794	0.000946
215.5847	0.000608
215.7900	0.000461
215.9953	-0.001101
216.2007	0.001473
216.4060	-0.000067
216.6114	0.000039
216.8168	0.000608
217.0222	0.002802
217.2276	0.000904
217.4330	0.001684
217.6384	-0.000552
217.8439	0.000608
218.0494	0.000777
218.2548	-0.000193
218.4603	-0.000425
218.6659	0.002507
218.8714	0.000819
219.0769	0.000102
219.2825	0.001431
219.4881	0.000081
219.6936	-0.000320
219.8992	0.001178
220.1049	0.000482
220.3105	0.000798
220.5161	0.000355
220.7218	0.001515
220.9275	0.000207
221.1332	0.000461
221.3389	-0.000046
221.5446	0.000397
221.7503	0.001368
221.9561	0.000081
222.1618	0.000925
222.3676	0.000292
222.5734	0.000925
222.7792	0.000714
222.9850	0.002634
223.1909	0.001494
223.3967	0.001241
223.6026	-0.000130
223.8085	0.001368
224.0144	0.000355
224.2203	0.000756
224.4262	0.000039
224.6322	0.001157
224.8381	0.001262
225.0441	0.001241
225.2501	0.001304
225.4561	0.001072
225.6621	0.000418
225.8681	0.000418
226.0742	0.000482
226.2802	-0.000679
226.4863	0.000714
226.6924	0.001937
226.8985	-0.000510
227.1046	-0.000004
227.3107	0.001811
227.5169	-0.000236
227.7230	0.001051
227.9292	-0.000004
228.1354	-0.000383
228.3416	-0.001016
228.5478	0.000503
228.7541	0.000503
228.9603	0.002169
229.1666	0.001030
229.3729	0.000271
229.5791	0.000587
229.7855	0.000018
229.9918	0.000060
230.1981	0.000376
230.4045	-0.000214
230.6108	0.001431
230.8172	0.001874
231.0236	0.000503
231.2300	0.000440
231.4364	0.000925
231.6429	0.000081
231.8493	-0.001164
232.0558	0.000777
232.2623	0.002127
232.4688	0.000292
232.6753	0.001030
232.8818	0.002001
233.0884	0.000777
233.2949	0.000440
233.5015	0.000735
233.7081	0.001030
233.9147	0.000988
234.1213	0.000313
234.3279	0.000925
234.5346	-0.001227
234.7413	0.000629
234.9479	-0.000278
235.1546	0.001515
235.3613	0.000271
235.5680	0.000376
235.7748	0.000545
235.9815	0.001537
236.1883	0.002085
236.3951	0.000545
236.6018	0.000186
236.8087	-0.000046
237.0155	0.000988
237.2223	0.002043
237.4292	0.000756
237.6360	0.000334
237.8429	-0.000236
238.0498	0.001115
238.2567	-0.000151
238.4636	0.001494
238.6706	0.000756
238.8775	-0.000193
239.0845	-0.000236
239.2915	0.000566
239.4985	0.001030
239.7055	0.001811
239.9125	0.000798
240.1195	0.001283
240.3266	0.001410
240.5337	0.002064
240.7407	0.000587
240.9478	0.001431
241.1549	0.001051
241.3621	0.001178
241.5692	0.000735
241.7764	0.000313
241.9835	-0.000510
242.1907	0.000608
242.3979	0.001832
242.6051	0.000313
242.8124	-0.000362
243.0196	0.001895
243.2269	0.001283
243.4341	0.001157
243.6414	0.000946
243.8487	0.001621
244.0560	0.000440
244.2634	0.001283
244.4707	0.000714
244.6781	0.000693
244.8854	0.000946
245.0928	0.000714
245.3002	0.000524
245.5076	0.000904
245.7151	0.000440
245.9225	0.000440
246.1300	0.000397
246.3375	0.002380
246.5449	0.001347
246.7524	0.001452
246.9600	0.000946
247.1675	0.000735
247.3750	0.000397
247.5826	0.001579
247.7902	0.001157
247.9978	0.001326
248.2054	0.001178
248.4130	0.001452
248.6206	0.000756
248.8283	0.001304
249.0359	0.001368
249.2436	0.000693
249.4513	0.001157
249.6590	-0.000004
249.8667	-0.000172
250.0745	0.001790
250.2822	0.003013
250.4900	0.000271
250.6978	0.000482
250.9056	-0.000004
251.1134	0.000123
251.3212	0.000946
251.5290	0.000123
251.7369	0.002043
251.9447	0.000883
252.1526	0.002190
252.3605	0.002001
252.5684	0.000397
252.7763	0.001705
252.9843	0.001326
253.1922	0.001769
253.4002	-0.001016
253.6082	-0.000236
253.8162	0.000165
254.0242	0.000904
254.2322	0.001220
254.4402	-0.000004
254.6483	0.001769
254.8564	-0.000636
255.0644	0.001030
255.2725	0.001262
255.4806	0.001199
255.6888	-0.000172
255.8969	0.001136
256.1051	-0.000362
256.3132	0.001136
256.5214	0.000524
256.7296	0.002380
256.9378	0.000756
257.1460	0.001030
257.3543	0.001473
257.5625	0.001326
257.7708	0.001874
257.9791	-0.000531
258.1874	0.000440
258.3957	0.000672
258.6040	-0.000109
258.8124	0.000313
259.0207	0.000418
259.2291	0.000925
259.4375	0.000714
259.6459	0.001621
259.8543	0.002001
260.0627	-0.000088
260.2711	0.000250
260.4796	0.000861
260.6881	0.000608
260.8965	0.000735
261.1050	0.000714
261.3135	0.001537
261.5221	0.000482
261.7306	0.001684
261.9392	0.000545
262.1477	0.000714
262.3563	0.002507
262.5649	0.000461
262.7735	-0.000679
262.9822	0.001051
263.1908	0.000946
263.3995	0.001136
263.6081	0.002359
263.8168	0.001283
264.0255	-0.000657
264.2342	0.000714
264.4429	0.000397
264.6517	0.000925
264.8604	0.000714
265.0692	0.001600
265.2780	-0.000236
265.4868	0.001220
265.6956	0.001283
265.9044	0.000461
266.1133	-0.000447
266.3221	0.000482
266.5310	-0.000130
266.7399	0.000165
266.9488	0.000650
267.1577	-0.000362
267.3666	0.001199
267.5755	0.001600
267.7845	0.001326
267.9935	0.000735
268.2024	-0.000594
268.4114	0.000587
268.6205	-0.000004
268.8295	0.000313
269.0385	0.002444
269.2476	0.000482
269.4566	0.001642
269.6657	0.000672
269.8748	0.002802
270.0839	0.001473
270.2931	0.000186
270.5022	0.001874
270.7114	0.000060
270.9205	0.001115
271.1297	-0.000214
271.3389	0.000629
271.5481	0.000608
271.7573	0.000440
271.9666	-0.000151
272.1758	0.000904
272.3851	0.001051
272.5944	0.000144
272.8037	0.001389
273.0130	0.000060
273.2223	0.000355
273.4316	0.000102
273.6410	0.001368
273.8504	0.000334
274.0597	0.000123
274.2691	0.001347
274.4785	-0.000236
274.6880	-0.000172
274.8974	-0.000004
275.1069	0.000798
275.3163	0.000376
275.5258	0.000186
275.7353	-0.000320
275.9448	0.000693
276.1543	0.000587
276.3639	-0.000067
276.5734	0.000271
276.7830	0.000756
276.9926	0.000186
277.2022	0.001389
277.4118	0.001283
277.6214	0.000018
277.8310	0.000461
278.0407	0.001958
278.2503	0.000292
278.4600	0.002338
278.6697	-0.000700
278.8794	0.001916
279.0891	0.000165
279.2989	0.000587
279.5086	0.001431
279.7184	0.002296
279.9281	0.000334
280.1379	0.000967
280.3477	-0.000868
280.5576	0.002127
280.7674	0.001410
280.9772	0.001347
281.1871	-0.000236
281.3970	0.000988
281.6069	0.001684
281.8168	0.001769
282.0267	-0.000510
282.2366	-0.000172
282.4466	0.000545
282.6565	0.001009
282.8665	0.000672
283.0765	0.000925
283.2865	0.000925
283.4965	-0.000151
283.7065	-0.000425
283.9166	0.001262
284.1266	0.001093
284.3367	0.001726
284.5468	-0.000004
284.7569	0.000946
284.9670	0.000714
285.1771	-0.000172
285.3873	0.000355
285.5974	0.000672
285.8076	-0.000088
286.0178	0.001494
286.2280	0.000334
286.4382	0.001958
286.6484	-0.000362
286.8587	0.002718
287.0689	-0.000594
287.2792	0.000861
287.4895	0.001199
287.6998	0.001558
287.9101	0.001093
288.1204	0.002549
288.3308	0.001368
288.5411	0.001684
288.7515	-0.000193
288.9619	0.000524
289.1723	0.001072
289.3827	0.000819
289.5931	0.000355
289.8035	0.001389
290.0140	0.000334
290.2245	0.001115
290.4349	0.001283
290.6454	0.001051
290.8559	0.001283
291.0665	0.001136
291.2770	0.000777
291.4875	-0.000636
291.6981	0.002275
291.9087	0.000672
292.1193	0.000418
292.3299	0.000946
292.5405	0.000756
292.7511	0.002106
292.9618	0.001115
293.1724	0.000440
293.3831	0.000756
293.5938	0.001093
293.8045	0.000018
294.0152	-0.000362
294.2260	0.001494
294.4367	0.002254
294.6475	0.000461
294.8582	0.001410
295.0690	0.001537
295.2798	0.001030
295.4906	-0.000341
295.7015	0.001684
295.9123	0.001515
296.1232	0.000925
296.3340	0.001115
296.5449	0.001537
296.7558	0.000861
296.9667	-0.000531
297.1777	0.000207
297.3886	-0.000721
297.5995	0.001093
297.8105	0.001705
298.0215	0.001726
298.2325	0.002802
298.4435	-0.000531
298.6545	0.000904
298.8656	0.000355
299.0766	0.000440
299.2877	0.000186
299.4988	0.002549
299.7099	0.000060
299.9210	0.001136
300.1321	0.000819
300.3432	0.001642
300.5544	0.000376
300.7655	0.000397
300.9767	-0.000004
301.1879	0.002908
301.3991	0.001431
301.6103	0.000587
301.8215	0.000714
302.0328	0.000650
302.2441	0.000207
302.4553	-0.001248
302.6666	0.000271
302.8779	0.000482
303.0892	0.000967
303.3006	0.001241
303.5119	0.000292
303.7233	0.000229
303.9346	-0.000531
304.1460	0.000672
304.3574	0.001705
304.5688	0.000060
304.7803	0.001136
304.9917	0.002423
305.2031	0.000629
305.4146	0.001072
305.6261	0.000503
305.8376	0.001558
306.0491	0.001326
306.2606	-0.000362
306.4722	0.001747
306.6837	0.002359
306.8953	0.000250
307.1069	0.001515
307.3184	0.000440
307.5301	0.000714
307.7417	0.000207
307.9533	0.002085
308.1650	0.000735
308.3766	0.001030
308.5883	0.000798
308.8000	0.001811
309.0117	0.000904
309.2234	0.002338
309.4351	-0.000615
309.6469	0.000271
309.8586	0.001853
310.0704	0.002064
310.2822	0.000461
310.4940	0.000777
310.7058	0.002064
310.9176	0.002254
311.1295	0.001136
311.3413	0.001558
311.5532	0.000672
311.7651	0.001916
311.9770	0.000693
312.1889	0.001431
312.4008	0.002169
312.6127	0.001431
312.8247	-0.001101
313.0366	0.001705
313.2486	0.001241
313.4606	0.002486
313.6726	0.001452
313.8846	0.001558
314.0967	0.001558
314.3087	0.001663
314.5208	0.002001
314.7328	0.002212
314.9449	0.000440
315.1570	0.001515
315.3692	0.001832
315.5813	0.000777
315.7934	0.001558
316.0056	0.001368
316.2177	0.001030
316.4299	0.001199
316.6421	0.000967
316.8543	0.001157
317.0666	0.001579
317.2788	0.001093
317.4911	0.001473
317.7033	0.001452
317.9156	0.000461
318.1279	0.002570
318.3402	0.001937
318.5525	0.002338
318.7649	0.001747
318.9772	0.002570
319.1896	0.001874
319.4019	0.003266
319.6143	0.002444
319.8267	0.000693
320.0392	0.001790
320.2516	0.002739
320.4640	0.002106
320.6765	0.001600
320.8890	0.002064
321.1014	0.001368
321.3139	0.002634
321.5265	0.001642
321.7390	0.001705
321.9515	0.002296
322.1641	0.002106
322.3766	0.001958
322.5892	0.001790
322.8018	0.003245
323.0144	0.002043
323.2270	0.002380
323.4397	0.003435
323.6523	0.002591
323.8650	0.002043
324.0777	0.004785
324.2904	0.002634
324.5031	0.002549
324.7158	0.003963
324.9285	0.003098
325.1412	0.003077
325.3540	0.001916
325.5668	0.001705
325.7796	0.002106
325.9924	0.004342
326.2052	0.002507
326.4180	0.002064
326.6308	0.004469
326.8437	0.003077
327.0566	0.003182
327.2694	0.003731
327.4823	0.003520
327.6952	0.003688
327.9082	0.002971
328.1211	0.003351
328.3340	0.003857
328.5470	0.002296
328.7600	0.002992
328.9730	0.001832
329.1860	0.005081
329.3990	0.003203
329.6120	0.004701
329.8251	0.003604
330.0381	0.004026
330.2512	0.002908
330.4643	0.004174
330.6774	0.002971
330.8905	0.003836
331.1036	0.004532
331.3167	0.002106
331.5299	0.004511
331.7431	0.005038
331.9562	0.004891
332.1694	0.004701
332.3826	0.004026
332.5959	0.003984
332.8091	0.004532
333.0223	0.005038
333.2356	0.004828
333.4489	0.004849
333.6622	0.005355
333.8755	0.004026
334.0888	0.003920
334.3021	0.005313
334.5154	0.003393
334.7288	0.004237
334.9422	0.004975
335.1555	0.005608
335.3689	0.006536
335.5823	0.004701
335.7958	0.003963
336.0092	0.004363
336.2227	0.004743
336.4361	0.005165
336.6496	0.005081
336.8631	0.005840
337.0766	0.005756
337.2901	0.007022
337.5036	0.004785
337.7172	0.005249
337.9307	0.004174
338.1443	0.004996
338.3579	0.005988
338.5715	0.006642
338.7851	0.006726
338.9987	0.005186
339.2124	0.006304
339.4260	0.004638
339.6397	0.006157
339.8533	0.005925
340.0670	0.005608
340.2807	0.006283
340.4945	0.005503
340.7082	0.005861
340.9219	0.004849
341.1357	0.006958
341.3495	0.004870
341.5633	0.007443
341.7771	0.005629
341.9909	0.006663
342.2047	0.007950
342.4185	0.007697
342.6324	0.005861
342.8463	0.006114
343.0601	0.006642
343.2740	0.006895
343.4879	0.007865
343.7019	0.007443
343.9158	0.006895
344.1297	0.006621
344.3437	0.005925
344.5577	0.008351
344.7717	0.008076
344.9857	0.007443
345.1997	0.006473
345.4137	0.006958
345.6277	0.006157
345.8418	0.006473
346.0559	0.007549
346.2699	0.007739
346.4840	0.007422
346.6981	0.008815
346.9123	0.007232
347.1264	0.007802
347.3406	0.006916
347.5547	0.009194
347.7689	0.007676
347.9831	0.009089
348.1973	0.007612
348.4115	0.008941
348.6257	0.009891
348.8400	0.008203
349.0542	0.007022
349.2685	0.006705
349.4828	0.008034
349.6971	0.008983
349.9114	0.007022
350.1257	0.007338
350.3400	0.009005
350.5544	0.008625
350.7687	0.008308
350.9831	0.009848
351.1975	0.009237
351.4119	0.008203
351.6263	0.008161
351.8407	0.009258
352.0552	0.009068
352.2696	0.009785
352.4841	0.007654
352.6986	0.009574
352.9131	0.008941
353.1276	0.009047
353.3421	0.009131
353.5566	0.008055
353.7712	0.010144
353.9858	0.009595
354.2003	0.009806
354.4149	0.009110
354.6295	0.009616
354.8441	0.009469
355.0588	0.008815
355.2734	0.010102
355.4881	0.010502
355.7027	0.010481
355.9174	0.009827
356.1321	0.009891
356.3468	0.010144
356.5615	0.009637
356.7763	0.009300
356.9910	0.009574
357.2058	0.009448
357.4206	0.011009
357.6353	0.010692
357.8501	0.009405
358.0650	0.011009
358.2798	0.010397
358.4946	0.010355
358.7095	0.009553
358.9243	0.010123
359.1392	0.010545
359.3541	0.009764
359.5690	0.011431
359.7839	0.011684
359.9989	0.011051
360.2138	0.011304
360.4288	0.011009
360.6438	0.011114
360.8587	0.011114
361.0737	0.011388
361.2888	0.010650
361.5038	0.011388
361.7188	0.011410
361.9339	0.010038
362.1489	0.010819
362.3640	0.010502
362.5791	0.011831
362.7942	0.010798
363.0093	0.012042
363.2245	0.010587
363.4396	0.011051
363.6548	0.010123
363.8699	0.010671
364.0851	0.010481
364.3003	0.011410
364.5155	0.010439
364.7308	0.009848
364.9460	0.011452
365.1612	0.011241
365.3765	0.011325
365.5918	0.011325
365.8071	0.010313
366.0224	0.012338
366.2377	0.012865
366.4530	0.011515
366.6684	0.011768
366.8837	0.010967
367.0991	0.013287
367.3145	0.011705
367.5299	0.012338
367.7453	0.014025
367.9607	0.012148
368.1761	0.014468
368.3916	0.011937
368.6070	0.012485
368.8225	0.012422
369.0380	0.014004
369.2535	0.013393
369.4690	0.012739
369.6845	0.013709
369.9001	0.013941
370.1156	0.012718
370.3312	0.014616
370.5468	0.012359
370.7624	0.013941
370.9780	0.014342
371.1936	0.015671
371.4092	0.013878
371.6249	0.014152
371.8405	0.013350
372.0562	0.014827
372.2719	0.014131
372.4876	0.014363
372.7033	0.012675
372.9190	0.014511
373.1348	0.014384
373.3505	0.014553
373.5663	0.012000
373.7820	0.016346
373.9978	0.014764
374.2136	0.015629
374.4294	0.016346
374.6453	0.016030
374.8611	0.014806
375.0770	0.017021
375.2928	0.016768
375.5087	0.018392
375.7246	0.016304
375.9405	0.017654
376.1564	0.017675
376.3724	0.016831
376.5883	0.018899
376.8043	0.017084
377.0203	0.016620
377.2362	0.017316
377.4522	0.017274
377.6682	0.018878
377.8843	0.018245
378.1003	0.017992
378.3164	0.018878
378.5324	0.018181
378.7485	0.020882
378.9646	0.019510
379.1807	0.020059
379.3968	0.021430
379.6129	0.020164
379.8291	0.020818
380.0452	0.021599
380.2614	0.020270
380.4776	0.019215
380.6938	0.023055
380.9100	0.022000
381.1262	0.021219
381.3424	0.019700
381.5587	0.021135
381.7749	0.021219
381.9912	0.022422
382.2075	0.022527
382.4238	0.022084
382.6401	0.021494
382.8564	0.022169
383.0728	0.023751
383.2891	0.020903
383.5055	0.020502
383.7219	0.021641
383.9382	0.022358
384.1546	0.025080
384.3711	0.023561
384.5875	0.023645
384.8039	0.022126
385.0204	0.024721
385.2368	0.024152
385.4533	0.022823
385.6698	0.023688
385.8863	0.025122
386.1028	0.024173
386.3194	0.022970
386.5359	0.024320
386.7525	0.023751
386.9690	0.025354
387.1856	0.024827
387.4022	0.025671
387.6188	0.027211
387.8355	0.027021
388.0521	0.027379
388.2687	0.026008
388.4854	0.025206
388.7021	0.025818
388.9188	0.027822
389.1355	0.025860
389.3522	0.025586
389.5689	0.024742
389.7856	0.025924
390.0024	0.025755
390.2192	0.026915
390.4359	0.024616
390.6527	0.027611
390.8695	0.026536
391.0863	0.026282
391.3032	0.028413
391.5200	0.028687
391.7369	0.028687
391.9537	0.029531
392.1706	0.028730
392.3875	0.031746
392.6044	0.031535
392.8213	0.031789
393.0383	0.033118
393.2552	0.032928
393.4722	0.031071
393.6891	0.029130
393.9061	0.031535
394.1231	0.029552
394.3401	0.030375
394.5572	0.033033
394.7742	0.028814
394.9912	0.030945
395.2083	0.031261
395.4254	0.032210
395.6425	0.030185
395.8596	0.030206
396.0767	0.031282
396.2938	0.032063
396.5109	0.029953
396.7281	0.032569
396.9453	0.032864
397.1624	0.034299
397.3796	0.032569
397.5968	0.034362
397.8140	0.034236
398.0313	0.034826
398.2485	0.035164
398.4658	0.038455
398.6830	0.037949
398.9003	0.038497
399.1176	0.037569
399.3349	0.037316
399.5522	0.036641
399.7696	0.036198
399.9869	0.035839
400.2043	0.035269
400.4216	0.035248
400.6390	0.035122
400.8564	0.035776
401.0738	0.036704
401.2912	0.035227
401.5087	0.035354
401.7261	0.033814
401.9436	0.034468
402.1610	0.034362
402.3785	0.034510
402.5960	0.033455
402.8135	0.035333
403.0310	0.035143
403.2486	0.033666
403.4661	0.035016
403.6837	0.034911
403.9013	0.037463
404.1189	0.035818
404.3365	0.037168
404.5541	0.036873
404.7717	0.035586
404.9893	0.037843
405.2070	0.037231
405.4246	0.036662
405.6423	0.037759
405.8600	0.037421
406.0777	0.038223
406.2954	0.036177
406.5131	0.037063
406.7309	0.036430
406.9486	0.036598
407.1664	0.034805
407.3842	0.033518
407.6020	0.036261
407.8198	0.036155
408.0376	0.034679
408.2554	0.036261
408.4733	0.036303
408.6911	0.036240
408.9090	0.036134
409.1269	0.035586
409.3448	0.035733
409.5627	0.036894
409.7806	0.036957
409.9985	0.036767
410.2165	0.036177
410.4344	0.034826
410.6524	0.035755
410.8704	0.035290
411.0884	0.033265
411.3064	0.035480
411.5244	0.034341
411.7424	0.037020
411.9605	0.034869
412.1785	0.035818
412.3966	0.037759
412.6147	0.036704
412.8328	0.036198
413.0509	0.037484
413.2690	0.037759
413.4871	0.037632
413.7053	0.037421
413.9234	0.039826
414.1416	0.037738
414.3598	0.037632
414.5780	0.036957
414.7962	0.039088
415.0144	0.036556
415.2326	0.038117
415.4509	0.037843
415.6692	0.036746
415.8874	0.036662
416.1057	0.037632
416.3240	0.037906
416.5423	0.036282
416.7606	0.038138
416.9790	0.036894
417.1973	0.036113
417.4157	0.039299
417.6341	0.036535
417.8524	0.037695
418.0708	0.036219
418.2893	0.036345
418.5077	0.038898
418.7261	0.038455
418.9446	0.036873
419.1630	0.039911
419.3815	0.039383
419.6000	0.038898
419.8185	0.037632
420.0370	0.037759
420.2555	0.038392
420.4741	0.043370
420.6926	0.041282
420.9112	0.042168
421.1298	0.042337
421.3483	0.046092
421.5669	0.046915
421.7856	0.048476
422.0042	0.046092
422.2228	0.044953
422.4415	0.045585
422.6601	0.045607
422.8788	0.046261
423.0975	0.046999
423.3162	0.044636
423.5349	0.048012
423.7536	0.044953
423.9724	0.043961
424.1911	0.042316
424.4099	0.043919
424.6287	0.040944
424.8475	0.042716
425.0663	0.044573
425.2851	0.041303
425.5039	0.043328
425.7228	0.042484
425.9416	0.039489
426.1605	0.039299
426.3793	0.037442
426.5982	0.039847
426.8171	0.039974
427.0361	0.039468
427.2550	0.043645
427.4739	0.044467
427.6929	0.041071
427.9118	0.041662
428.1308	0.041619
428.3498	0.040986
428.5688	0.041873
428.7878	0.040100
429.0068	0.039425
429.2259	0.043370
429.4449	0.044931
429.6640	0.046809
429.8831	0.048708
430.1022	0.048138
430.3213	0.049130
430.5404	0.052083
430.7595	0.047358
430.9787	0.046915
431.1978	0.048518
431.4170	0.045480
