# Wavelength	Intensity diff (sample - DMSO)
197.780200 0.000086
197.984200 -0.000980
198.188200 -0.000118
198.392200 -0.000138
198.596300 -0.000604
198.800300 -0.000084
199.004400 0.000209
199.208500 -0.000646
199.412600 0.000673
199.616800 -0.000041
199.820900 0.000304
200.025100 -0.000096
200.229200 0.000621
200.433400 -0.001093
200.637600 0.000722
200.841800 0.000213
201.046100 -0.000199
201.250300 -0.000737
201.454600 -0.001053
201.658900 -0.001099
201.863100 -0.000590
202.067400 0.000041
202.271800 -0.000245
202.476100 -0.000171
202.680500 -0.000196
202.884800 -0.000508
203.089200 -0.000283
203.293600 -0.000643
203.498000 0.000037
203.702400 0.000132
203.906900 0.000877
204.111300 0.000669
204.315800 -0.000439
204.520300 -0.000954
204.724800 -0.000059
204.929300 0.000185
205.133800 -0.001187
205.338400 -0.000375
205.543000 -0.000459
205.747500 0.000051
205.952100 0.000525
206.156700 -0.000010
206.361400 0.000779
206.566000 -0.000578
206.770600 -0.000273
206.975300 0.000096
207.180000 0.000574
207.384700 0.000560
207.589400 0.001123
207.794100 0.000722
207.998900 -0.000112
208.203600 -0.000888
208.408400 -0.000389
208.613200 -0.000628
208.818000 0.000233
209.022800 -0.000699
209.227600 -0.000241
209.432500 -0.000474
209.637300 0.000712
209.842200 -0.000003
210.047100 -0.000286
210.252000 0.000588
210.456900 -0.001173
210.661800 -0.001658
210.866800 -0.000840
211.071800 -0.001457
211.276700 -0.000179
211.481700 0.000128
211.686700 -0.000467
211.891800 0.000082
212.096800 -0.001222
212.301800 -0.001525
212.506900 -0.000660
212.712000 -0.000947
212.917100 -0.000962
213.122200 -0.001349
213.327300 -0.000751
213.532500 0.000680
213.737600 -0.000076
213.942800 0.000680
214.148000 -0.000529
214.353200 -0.000214
214.558400 -0.000365
214.763600 -0.001352
214.968900 -0.000073
215.174100 -0.001000
215.379400 0.002045
215.584700 -0.000790
215.790000 0.000494
215.995300 -0.000094
216.200700 0.000208
216.406000 0.000065
216.611400 0.000581
216.816800 -0.000558
217.022200 -0.000061
217.227600 -0.000680
217.433000 -0.000023
217.638400 -0.000266
217.843900 -0.000188
218.049400 0.000602
218.254800 -0.000944
218.460300 0.000138
218.665900 -0.000604
218.871400 -0.001704
219.076900 0.000173
219.282500 -0.000347
219.488100 -0.000576
219.693600 -0.000730
219.899200 -0.001538
220.104900 -0.000977
220.310500 -0.000231
220.516100 0.000735
220.721800 -0.001049
220.927500 -0.000329
221.133200 -0.000273
221.338900 -0.001145
221.544600 0.000132
221.750300 -0.001268
221.956100 -0.000205
222.161800 -0.000713
222.367600 -0.000435
222.573400 0.000036
222.779200 0.000715
222.985000 0.000180
223.190900 -0.000094
223.396700 -0.000737
223.602600 0.000553
223.808500 0.000501
224.014400 0.000184
224.220300 -0.000252
224.426200 0.000423
224.632200 -0.000114
224.838100 -0.000533
225.044100 0.000033
225.250100 0.000240
225.456100 -0.000185
225.662100 -0.000241
225.868100 0.000265
226.074200 -0.000044
226.280200 0.000585
226.486300 -0.000065
226.692400 -0.000087
226.898500 -0.000048
227.104600 0.000004
227.310700 -0.001107
227.516900 0.000216
227.723000 0.000093
227.929200 -0.000822
228.135400 -0.000234
228.341600 -0.000098
228.547800 -0.000842
228.754100 -0.000990
228.960300 0.000328
229.166600 0.000628
229.372900 -0.001036
229.579100 -0.000330
229.785500 -0.000473
229.991800 0.000377
230.198100 -0.000118
230.404500 0.000398
230.610800 -0.000470
230.817200 0.000416
231.023600 -0.000146
231.230000 -0.000295
231.436400 -0.000965
231.642900 0.000178
231.849300 0.000202
232.055800 0.000929
232.262300 -0.002302
232.468800 0.000272
232.675300 0.000324
232.881800 0.000225
233.088400 -0.000383
233.294900 0.000395
233.501500 -0.000090
233.708100 -0.000045
233.914700 -0.000123
234.121300 -0.000312
234.327900 -0.000615
234.534600 -0.000322
234.741300 -0.000523
234.947900 0.000262
235.154600 -0.002642
235.361300 -0.000035
235.568000 -0.000464
235.774800 -0.000336
235.981500 -0.000269
236.188300 -0.000042
236.395100 0.000476
236.601800 -0.000288
236.808700 -0.000818
237.015500 -0.000699
237.222300 -0.000702
237.429200 -0.001507
237.636000 -0.000199
237.842900 0.000335
238.049800 -0.000332
238.256700 -0.000270
238.463600 -0.000364
238.670600 -0.000283
238.877500 -0.000273
239.084500 0.000915
239.291500 -0.000912
239.498500 -0.000319
239.705500 0.000430
239.912500 -0.000558
240.119500 0.000933
240.326600 -0.000608
240.533700 0.001062
240.740700 -0.000230
240.947800 -0.000165
241.154900 -0.001015
241.362100 -0.000132
241.569200 -0.000213
241.776400 -0.000008
241.983500 -0.000702
242.190700 -0.000748
242.397900 -0.000241
242.605100 0.000201
242.812400 -0.000502
243.019600 -0.000490
243.226900 -0.000965
243.434100 -0.000470
243.641400 0.000170
243.848700 -0.000625
244.056000 0.000251
244.263400 0.000420
244.470700 -0.000776
244.678100 -0.000979
244.885400 -0.000554
245.092800 0.000965
245.300200 0.000149
245.507600 -0.000403
245.715100 -0.000199
245.922500 0.000145
246.130000 0.000206
246.337500 -0.000030
246.544900 0.000114
246.752400 -0.001647
246.960000 0.000054
247.167500 -0.000660
247.375000 0.000123
247.582600 -0.000578
247.790200 -0.000136
247.997800 -0.000100
248.205400 -0.000618
248.413000 0.000616
248.620600 -0.000080
248.828300 -0.000212
249.035900 -0.000611
249.243600 -0.000498
249.451300 -0.001855
249.659000 -0.001406
249.866700 -0.000892
250.074500 -0.000111
250.282200 -0.001732
250.490000 -0.000041
250.697800 -0.000579
250.905600 0.001426
251.113400 0.000237
251.321200 -0.000041
251.529000 0.000254
251.736900 -0.000699
251.944700 -0.001792
252.152600 -0.001198
252.360500 -0.000719
252.568400 -0.000349
252.776300 -0.000077
252.984300 0.000064
253.192200 0.000008
253.400200 -0.000054
253.608200 0.000078
253.816200 -0.000863
254.024200 -0.001297
254.232200 0.000209
254.440200 0.000575
254.648300 -0.000007
254.856400 0.000121
255.064400 0.000392
255.272500 -0.000804
255.480600 -0.000572
255.688800 0.001091
255.896900 0.000107
256.105100 -0.002042
256.313200 0.000585
256.521400 -0.000400
256.729600 0.000210
256.937800 -0.001107
257.146000 0.000332
257.354300 0.001644
257.562500 -0.000491
257.770800 0.000610
257.979100 -0.000677
258.187400 0.000476
258.395700 -0.000995
258.604000 -0.000734
258.812400 -0.000776
259.020700 -0.001451
259.229100 0.000100
259.437500 -0.000449
259.645900 -0.001399
259.854300 -0.000505
260.062700 -0.000613
260.271100 0.000114
260.479600 -0.000389
260.688100 -0.000037
260.896500 -0.000899
261.105000 0.000493
261.313500 -0.000097
261.522100 -0.001708
261.730600 -0.000091
261.939200 0.000571
262.147700 0.000068
262.356300 -0.000298
262.564900 0.000680
262.773500 0.000020
262.982200 -0.000997
263.190800 0.000300
263.399500 -0.001001
263.608100 -0.000731
263.816800 -0.000241
264.025500 -0.000033
264.234200 0.000311
264.442900 0.000391
264.651700 -0.000446
264.860400 0.000403
265.069200 -0.000164
265.278000 -0.000615
265.486800 -0.000048
265.695600 -0.000369
265.904400 -0.000579
266.113300 -0.000119
266.322100 0.000008
266.531000 -0.000249
266.739900 0.000525
266.948800 -0.000762
267.157700 0.000068
267.366600 -0.000977
267.575500 -0.000400
267.784500 0.000086
267.993500 0.000001
268.202400 -0.000733
268.411400 0.000241
268.620500 -0.000833
268.829500 -0.000248
269.038500 0.000280
269.247600 -0.000153
269.456600 0.000050
269.665700 0.000072
269.874800 -0.000417
270.083900 -0.000530
270.293100 0.000567
270.502200 0.000462
270.711400 -0.000094
270.920500 -0.000445
271.129700 -0.000365
271.338900 0.000141
271.548100 -0.001071
271.757300 -0.001145
271.966600 -0.000322
272.175800 -0.001419
272.385100 -0.001036
272.594400 -0.000902
272.803700 -0.000280
273.013000 0.000634
273.222300 -0.000224
273.431600 -0.001022
273.641000 -0.000864
273.850400 0.000205
274.059700 -0.000210
274.269100 -0.000596
274.478500 -0.000340
274.688000 -0.000425
274.897400 -0.000090
275.106900 0.001393
275.316300 -0.001103
275.525800 -0.000389
275.735300 0.001382
275.944800 -0.000377
276.154300 0.000529
276.363900 0.000480
276.573400 -0.000062
276.783000 -0.000308
276.992600 -0.000325
277.202200 -0.000836
277.411800 -0.000446
277.621400 0.001039
277.831000 -0.000430
278.040700 -0.000628
278.250300 -0.000692
278.460000 -0.000133
278.669700 -0.000178
278.879400 0.001056
279.089100 0.000631
279.298900 -0.000227
279.508600 -0.000451
279.718400 -0.001026
279.928100 0.000620
280.137900 -0.000477
280.347700 -0.000023
280.557600 0.000293
280.767400 -0.001188
280.977200 0.000188
281.187100 0.001862
281.397000 -0.001654
281.606900 0.000484
281.816800 -0.000431
282.026700 -0.000026
282.236600 -0.000477
282.446600 -0.001250
282.656500 0.001310
282.866500 -0.000284
283.076500 0.000778
283.286500 -0.000582
283.496500 -0.000196
283.706500 -0.000628
283.916600 -0.000175
284.126600 0.000342
284.336700 -0.000217
284.546800 -0.000235
284.756900 -0.000107
284.967000 -0.001121
285.177100 0.000307
285.387300 0.001014
285.597400 -0.000888
285.807600 -0.000228
286.017800 -0.001416
286.228000 -0.000439
286.438200 -0.000185
286.648400 -0.000544
286.858700 -0.001436
287.068900 0.000188
287.279200 -0.000220
287.489500 0.000469
287.699800 -0.000474
287.910100 0.000051
288.120400 0.000099
288.330800 0.000246
288.541100 -0.002369
288.751500 0.000213
288.961900 0.000212
289.172300 0.000504
289.382700 -0.000311
289.593100 -0.000392
289.803500 0.001847
290.014000 -0.000698
290.224500 -0.000508
290.434900 0.000929
290.645400 0.000494
290.855900 0.000237
291.066500 -0.000671
291.277000 -0.000234
291.487500 0.000093
291.698100 -0.000336
291.908700 0.001186
292.119300 -0.001184
292.329900 -0.000558
292.540500 0.000391
292.751100 0.000803
292.961800 0.000979
293.172400 -0.000776
293.383100 0.001032
293.593800 -0.000737
293.804500 0.000029
294.015200 -0.000297
294.226000 -0.000108
294.436700 0.000057
294.647500 -0.000555
294.858200 -0.000494
295.069000 -0.000618
295.279800 0.000226
295.490600 0.000111
295.701500 -0.000262
295.912300 -0.000875
296.123200 -0.001637
296.334000 -0.000104
296.544900 -0.001703
296.755800 -0.000835
296.966700 0.000364
297.177700 -0.000773
297.388600 -0.000533
297.599500 0.000853
297.810500 -0.000530
298.021500 -0.000407
298.232500 -0.000146
298.443500 0.000420
298.654500 -0.000896
298.865600 -0.001233
299.076600 -0.000590
299.287700 0.000936
299.498800 -0.000832
299.709900 -0.000414
299.921000 -0.000896
300.132100 -0.000540
300.343200 -0.000657
300.554400 -0.000344
300.765500 -0.000365
300.976700 0.000936
301.187900 -0.000191
301.399100 -0.001118
301.610300 -0.000034
301.821500 -0.001418
302.032800 -0.000641
302.244100 -0.000537
302.455300 0.000405
302.666600 -0.000435
302.877900 -0.000392
303.089200 0.000219
303.300600 -0.000161
303.511900 -0.000796
303.723300 0.000374
303.934600 -0.000221
304.146000 0.001067
304.357400 0.000655
304.568800 0.000153
304.780300 -0.001222
304.991700 0.000036
305.203100 0.000458
305.414600 -0.001061
305.626100 -0.000474
305.837600 -0.000944
306.049100 -0.000079
306.260600 -0.001331
306.472200 -0.000030
306.683700 0.000430
306.895300 0.000473
307.106900 -0.000027
307.318400 -0.000509
307.530100 -0.000600
307.741700 -0.000087
307.953300 -0.000682
308.165000 0.000863
308.376600 -0.000480
308.588300 -0.000413
308.800000 -0.000128
309.011700 -0.001151
309.223400 -0.000544
309.435100 0.000405
309.646900 0.000234
309.858600 -0.000877
310.070400 -0.000364
310.282200 0.001003
310.494000 -0.000300
310.705800 -0.001335
310.917600 -0.000337
311.129500 -0.000089
311.341300 -0.001095
311.553200 0.000016
311.765100 0.000610
311.977000 -0.000646
312.188900 0.000374
312.400800 -0.000464
312.612700 0.000023
312.824700 -0.000611
313.036600 -0.000164
313.248600 -0.000835
313.460600 -0.000305
313.672600 -0.000466
313.884600 0.000937
314.096700 0.000352
314.308700 -0.001250
314.520800 -0.000874
314.732800 -0.001398
314.944900 0.000553
315.157000 -0.000346
315.369200 0.000019
315.581300 0.000285
315.793400 0.000645
316.005600 -0.000983
316.217700 -0.000828
316.429900 -0.001321
316.642100 -0.000652
316.854300 0.000677
317.066600 -0.001369
317.278800 -0.001314
317.491100 -0.000983
317.703300 -0.000758
317.915600 -0.000687
318.127900 -0.001141
318.340200 -0.000066
318.552500 -0.000593
318.764900 -0.000009
318.977200 -0.000674
319.189600 0.000466
319.401900 -0.000856
319.614300 0.000138
319.826700 0.001296
320.039200 -0.000529
320.251600 -0.000290
320.464000 -0.000709
320.676500 -0.000262
320.889000 0.001408
321.101400 -0.000491
321.313900 -0.000428
321.526500 -0.001046
321.739000 -0.000786
321.951500 -0.001560
322.164100 0.000216
322.376600 -0.000674
322.589200 -0.000768
322.801800 0.000023
323.014400 0.000023
323.227000 -0.000023
323.439700 -0.000673
323.652300 -0.000346
323.865000 0.000307
324.077700 -0.000438
324.290400 0.000396
324.503100 -0.000389
324.715800 -0.000871
324.928500 0.000286
325.141200 -0.000209
325.354000 -0.000468
325.566800 0.000005
325.779600 -0.001205
325.992400 0.001190
326.205200 -0.000635
326.418000 -0.000093
326.630800 -0.001609
326.843700 -0.003145
327.056600 -0.000146
327.269400 0.000544
327.482300 -0.001725
327.695200 0.000252
327.908200 -0.000223
328.121100 -0.000026
328.334000 -0.000778
328.547000 -0.001908
328.760000 0.000184
328.973000 -0.000764
329.186000 -0.000673
329.399000 0.000103
329.612000 -0.001879
329.825100 -0.000104
330.038100 -0.000268
330.251200 -0.001063
330.464300 -0.000736
330.677400 -0.001038
330.890500 -0.001787
331.103600 -0.000283
331.316700 -0.000730
331.529900 -0.001074
331.743100 -0.000083
331.956200 -0.001021
332.169400 -0.000290
332.382600 -0.000353
332.595900 -0.001721
332.809100 0.000171
333.022300 -0.000026
333.235600 -0.000427
333.448900 -0.001113
333.662200 -0.000504
333.875500 -0.000392
334.088800 0.001320
334.302100 -0.001615
334.515400 -0.000170
334.728800 0.000755
334.942200 0.000439
335.155500 0.000737
335.368900 -0.002044
335.582300 0.000568
335.795800 -0.000367
336.009200 -0.000616
336.222700 0.000361
336.436100 -0.000722
336.649600 -0.001794
336.863100 0.000410
337.076600 -0.001815
337.290100 -0.000283
337.503600 -0.000054
337.717200 -0.000915
337.930700 -0.000402
338.144300 -0.001414
338.357900 0.000045
338.571500 0.001019
338.785100 -0.000508
338.998700 -0.000339
339.212400 -0.001362
339.426000 0.000252
339.639700 0.000674
339.853300 -0.000191
340.067000 -0.000634
340.280700 0.000942
340.494500 -0.000395
340.708200 0.000058
340.921900 -0.000904
341.135700 0.001596
341.349500 0.000084
341.563300 0.000305
341.777100 -0.001207
341.990900 -0.000662
342.204700 -0.001429
342.418500 -0.002057
342.632400 -0.000961
342.846300 -0.000113
343.060100 0.001297
343.274000 -0.000293
343.487900 -0.001383
343.701900 -0.000250
343.915800 -0.000957
344.129700 -0.001358
344.343700 0.000308
344.557700 -0.000788
344.771700 -0.000293
344.985700 -0.001020
345.199700 -0.000151
345.413700 -0.000992
345.627700 0.000410
345.841800 0.000003
346.055900 -0.000299
346.269900 0.000485
346.484000 -0.001007
346.698100 0.000604
346.912300 -0.000223
347.126400 -0.000988
347.340600 -0.000236
347.554700 -0.000302
347.768900 -0.001264
347.983100 -0.001178
348.197300 -0.000830
348.411500 -0.000507
348.625700 -0.000102
348.840000 0.000295
349.054200 -0.001685
349.268500 -0.001378
349.482800 -0.000506
349.697100 -0.000404
349.911400 -0.000320
350.125700 0.000024
350.340000 -0.001545
350.554400 -0.000507
350.768700 0.000292
350.983100 0.000119
351.197500 0.000443
351.411900 -0.001527
351.626300 -0.001174
351.840700 -0.000310
352.055200 0.000134
352.269600 -0.000700
352.484100 -0.001456
352.698600 -0.001997
352.913100 0.000425
353.127600 -0.000503
353.342100 -0.001016
353.556600 -0.000956
353.771200 -0.001906
353.985800 0.000421
354.200300 0.000415
354.414900 -0.000166
354.629500 -0.000017
354.844100 -0.000334
355.058800 -0.001097
355.273400 0.000229
355.488100 -0.001196
355.702700 -0.000235
355.917400 -0.000356
356.132100 -0.000907
356.346800 -0.000678
356.561500 -0.001361
356.776300 0.000081
356.991000 -0.000218
357.205800 -0.000464
357.420600 -0.001505
357.635300 -0.000285
357.850100 -0.000840
358.065000 -0.000387
358.279800 0.000064
358.494600 0.000246
358.709500 0.000043
358.924300 0.000210
359.139200 -0.001382
359.354100 -0.000697
359.569000 -0.000127
359.783900 -0.000219
359.998900 0.000995
360.213800 -0.000640
360.428800 -0.001490
360.643800 0.000654
360.858700 0.000683
361.073700 -0.001529
361.288800 -0.000844
361.503800 -0.001754
361.718800 -0.000024
361.933900 -0.000605
362.148900 -0.000531
362.364000 0.000303
362.579100 -0.001389
362.794200 0.000211
363.009300 -0.001593
363.224500 0.000274
363.439600 -0.000245
363.654800 -0.000840
363.869900 0.000391
364.085100 -0.000436
364.300300 0.000559
364.515500 -0.001514
364.730800 -0.001389
364.946000 -0.000417
365.161200 -0.000630
365.376500 -0.000907
365.591800 -0.000959
365.807100 -0.000123
366.022400 -0.001312
366.237700 -0.001230
366.453000 -0.001874
366.668400 -0.001660
366.883700 -0.000404
367.099100 -0.000438
367.314500 -0.000431
367.529900 -0.001733
367.745300 -0.000948
367.960700 -0.000886
368.176100 -0.000464
368.391600 -0.000632
368.607000 -0.001093
368.822500 -0.001266
369.038000 -0.002620
369.253500 -0.000204
369.469000 -0.000273
369.684500 -0.002084
369.900100 -0.000375
370.115600 -0.000028
370.331200 0.000215
370.546800 -0.000323
370.762400 -0.001961
370.978000 -0.000510
371.193600 -0.000066
371.409200 -0.000200
371.624900 -0.001785
371.840500 -0.001934
372.056200 -0.000797
372.271900 0.000873
372.487600 -0.003040
372.703300 -0.000780
372.919000 -0.000069
373.134800 -0.000039
373.350500 -0.000291
373.566300 -0.000396
373.782000 -0.000393
373.997800 -0.001427
374.213600 -0.000769
374.429400 -0.000674
374.645300 -0.002246
374.861100 0.001066
375.077000 0.000525
375.292800 0.001252
375.508700 -0.000219
375.724600 -0.000270
375.940500 -0.000192
376.156400 -0.000909
376.372400 -0.001432
376.588300 -0.000561
376.804300 -0.000529
377.020300 -0.002382
377.236200 -0.002149
377.452200 -0.001862
377.668200 -0.001866
377.884300 -0.000561
378.100300 -0.000167
378.316400 -0.001953
378.532400 -0.000092
378.748500 -0.001752
378.964600 -0.002087
379.180700 -0.002255
379.396800 -0.002100
379.612900 0.000266
379.829100 -0.002022
380.045200 -0.000715
380.261400 -0.001995
380.477600 -0.001995
380.693800 0.000449
380.910000 -0.002976
381.126200 0.000059
381.342400 -0.002445
381.558700 0.000977
381.774900 -0.001095
381.991200 -0.001164
382.207500 0.000214
382.423800 -0.001478
382.640100 -0.000830
382.856400 -0.002015
383.072800 0.000088
383.289100 -0.001315
383.505500 -0.001298
383.721900 -0.000975
383.938200 -0.001654
384.154600 -0.000279
384.371100 -0.000366
384.587500 -0.000623
384.803900 -0.002318
385.020400 -0.001547
385.236800 -0.000521
385.453300 -0.002227
385.669800 -0.000091
385.886300 -0.000226
386.102800 -0.001972
386.319400 -0.000855
386.535900 -0.001418
386.752500 -0.001920
386.969000 0.000017
387.185600 -0.001234
387.402200 -0.001382
387.618800 -0.001424
387.835500 -0.000794
388.052100 -0.001832
388.268700 -0.001769
388.485400 -0.001319
388.702100 -0.001241
388.918800 0.000138
389.135500 -0.002005
389.352200 -0.001272
389.568900 -0.000415
389.785600 -0.001818
390.002400 -0.000492
390.219200 -0.000992
390.435900 -0.002039
390.652700 -0.000270
390.869500 -0.002654
391.086300 -0.002000
391.303200 -0.001768
391.520000 -0.000248
391.736900 -0.001329
391.953700 -0.001747
392.170600 -0.000871
392.387500 -0.000667
392.604400 -0.002298
392.821300 -0.000146
393.038300 -0.000818
393.255200 -0.001957
393.472200 -0.002387
393.689100 -0.001967
393.906100 -0.000097
394.123100 -0.000808
394.340100 -0.000976
394.557200 -0.000919
394.774200 -0.000189
394.991200 0.000388
395.208300 -0.000108
395.425400 -0.001116
395.642500 -0.001894
395.859600 -0.001809
396.076700 -0.000846
396.293800 -0.001128
396.510900 -0.001891
396.728100 -0.000631
396.945300 -0.002207
397.162400 -0.001443
397.379600 -0.001010
397.596800 -0.001647
397.814000 -0.000525
398.031300 -0.003960
398.248500 -0.002205
398.465800 -0.004009
398.683000 -0.000524
398.900300 -0.002455
399.117600 -0.001027
399.334900 -0.002944
399.552200 -0.002097
399.769600 -0.001911
399.986900 -0.001354
400.204300 -0.001584
400.421600 -0.000972
400.639000 -0.002441
