# Wavelength (nm)	Intensity (a.u.)
197.7802	0.000091
197.9842	0.000619
198.1882	-0.000436
198.3922	-0.000563
198.5963	0.000070
198.8003	-0.000626
199.0044	-0.000331
199.2085	0.000767
199.4126	0.000134
199.6168	-0.000183
199.8209	0.000535
200.0251	0.001084
200.2292	0.001886
200.4334	0.000661
200.6376	0.001168
200.8418	-0.000331
201.0461	-0.000352
201.2503	0.000556
201.4546	-0.000267
201.6589	-0.000352
201.8631	0.000471
202.0674	0.000556
202.2718	-0.000120
202.4761	0.000577
202.6805	-0.000246
202.8848	0.000049
203.0892	0.000197
203.2936	-0.000352
203.4980	-0.000858
203.7024	0.000218
203.9069	-0.001091
204.1113	0.000619
204.3158	0.001970
204.5203	0.001295
204.7248	-0.000394
204.9293	0.000281
205.1338	0.000113
205.3384	0.000767
205.5430	0.000049
205.7475	0.000493
205.9521	0.001168
206.1567	0.000429
206.3614	0.000936
206.5660	-0.000711
206.7706	0.001147
206.9753	0.000788
207.1800	-0.000943
207.3847	-0.000922
207.5894	0.000366
207.7941	-0.000668
207.9989	-0.000647
208.2036	0.000493
208.4084	0.000704
208.6132	-0.000352
208.8180	0.001084
209.0228	0.001126
209.2276	-0.000647
209.4325	0.000704
209.6373	-0.000415
209.8422	0.001020
210.0471	0.000176
210.2520	-0.000626
210.4569	0.000239
210.6618	-0.001027
210.8668	0.001020
211.0718	-0.000077
211.2767	-0.000288
211.4817	-0.000162
211.6867	0.000471
211.8918	-0.000563
212.0968	0.001463
212.3018	-0.001281
212.5069	0.000387
212.7120	0.000746
212.9171	0.000429
213.1222	0.000704
213.3273	0.000049
213.5325	-0.000246
213.7376	0.001907
213.9428	0.000851
214.1480	0.001020
214.3532	-0.000225
214.5584	-0.001048
214.7636	0.000007
214.9689	0.000872
215.1741	-0.000922
215.3794	0.000197
215.5847	0.000387
215.7900	-0.001027
215.9953	0.000851
216.2007	0.000260
216.4060	-0.001808
216.6114	-0.000816
216.8168	-0.000014
217.0222	-0.000478
217.2276	0.000661
217.4330	-0.000500
217.6384	0.000091
217.8439	-0.001281
218.0494	-0.000457
218.2548	0.000049
218.4603	-0.001513
218.6659	0.001273
218.8714	0.000408
219.0769	-0.000077
219.2825	-0.001196
219.4881	-0.000774
219.6936	0.000471
219.8992	0.000049
220.1049	-0.000373
220.3105	0.000028
220.5161	0.001295
220.7218	0.000493
220.9275	0.000007
221.1332	0.001632
221.3389	0.000556
221.5446	0.000514
221.7503	0.000577
221.9561	0.000345
222.1618	-0.000162
222.3676	-0.000584
222.5734	0.000746
222.7792	-0.000056
222.9850	0.001105
223.1909	0.000113
223.3967	0.000429
223.6026	0.000134
223.8085	-0.000605
224.0144	-0.000225
224.2203	-0.000626
224.4262	-0.000457
224.6322	-0.001703
224.8381	0.000767
225.0441	0.000324
225.2501	0.000049
225.4561	0.001337
225.6621	0.001548
225.8681	-0.000267
226.0742	0.001084
226.2802	-0.002019
226.4863	0.000324
226.6924	0.000788
226.8985	-0.000035
227.1046	0.000176
227.3107	0.000894
227.5169	-0.000711
227.7230	-0.000647
227.9292	-0.000478
228.1354	0.000957
228.3416	-0.001196
228.5478	0.000704
228.7541	0.000113
228.9603	-0.000521
229.1666	0.000936
229.3729	-0.000542
229.5791	0.000197
229.7855	0.001548
229.9918	-0.000204
230.1981	0.001062
230.4045	0.000746
230.6108	0.000830
230.8172	-0.000162
231.0236	0.000872
231.2300	0.000746
231.4364	-0.000056
231.6429	0.000682
231.8493	0.001590
232.0558	0.000535
232.2623	0.000682
232.4688	0.000556
232.6753	0.000218
232.8818	0.000471
233.0884	0.000176
233.2949	-0.001006
233.5015	0.000176
233.7081	-0.000352
233.9147	-0.000605
234.1213	-0.000436
234.3279	0.000007
234.5346	0.000851
234.7413	-0.000310
234.9479	0.000661
235.1546	0.000725
235.3613	0.000936
235.5680	0.000894
235.7748	-0.000352
235.9815	0.000682
236.1883	-0.000035
236.3951	0.001231
236.6018	-0.000225
236.8087	0.001569
237.0155	-0.000352
237.2223	0.000493
237.4292	-0.000795
237.6360	0.001632
237.8429	-0.001470
238.0498	0.000640
238.2567	-0.001935
238.4636	0.001126
238.6706	-0.001449
238.8775	0.000809
239.0845	-0.000457
239.2915	0.000345
239.4985	-0.000626
239.7055	0.000239
239.9125	-0.000732
240.1195	0.000176
240.3266	0.000345
240.5337	0.001463
240.7407	0.000577
240.9478	-0.000711
241.1549	0.000514
241.3621	0.001105
241.5692	-0.000267
241.7764	-0.000647
241.9835	0.000007
242.1907	0.001295
242.3979	-0.000436
242.6051	0.000767
242.8124	0.000007
243.0196	-0.000500
243.2269	0.000493
243.4341	0.001358
243.6414	-0.000478
243.8487	0.000429
244.0560	0.000091
244.2634	0.000176
244.4707	-0.000500
244.6781	0.000070
244.8854	0.000345
245.0928	-0.000014
245.3002	0.000366
245.5076	0.000493
245.7151	0.000155
245.9225	0.001590
246.1300	-0.000668
246.3375	-0.001048
246.5449	-0.000521
246.7524	0.000387
246.9600	0.001020
247.1675	-0.000099
247.3750	-0.001302
247.5826	0.001231
247.7902	-0.001428
247.9978	0.000471
248.2054	-0.000225
248.4130	0.000640
248.6206	0.000851
248.8283	0.002920
249.0359	-0.000647
249.2436	0.000936
249.4513	-0.000415
249.6590	-0.000141
249.8667	0.000851
250.0745	0.001358
250.2822	0.000281
250.4900	-0.000415
250.6978	-0.000732
250.9056	0.000661
251.1134	0.001442
251.3212	0.000324
251.5290	-0.000605
251.7369	-0.000056
251.9447	0.000493
252.1526	0.001020
252.3605	0.001949
252.5684	-0.000099
252.7763	-0.001112
252.9843	-0.000795
253.1922	-0.000858
253.4002	0.000767
253.6082	-0.000858
253.8162	0.000281
254.0242	-0.000415
254.2322	0.000429
254.4402	0.001506
254.6483	-0.000647
254.8564	-0.001787
255.0644	-0.000985
255.2725	-0.000690
255.4806	-0.000795
255.6888	0.000556
255.8969	0.000493
256.1051	-0.000035
256.3132	0.000197
256.5214	0.000197
256.7296	0.000366
256.9378	-0.001027
257.1460	0.001506
257.3543	-0.000457
257.5625	0.000155
257.7708	-0.001175
257.9791	0.001084
258.1874	-0.000014
258.3957	0.000450
258.6040	-0.001703
258.8124	0.001168
259.0207	0.000514
259.2291	0.001105
259.4375	0.001759
259.6459	0.000281
259.8543	-0.000183
260.0627	-0.000816
260.2711	-0.001217
260.4796	-0.000099
260.6881	0.000239
260.8965	0.000514
261.1050	-0.000035
261.3135	0.000471
261.5221	-0.000457
261.7306	0.000218
261.9392	-0.000035
262.1477	0.000450
262.3563	-0.001006
262.5649	0.000767
262.7735	0.000725
262.9822	-0.001302
263.1908	0.000978
263.3995	0.000640
263.6081	0.000281
263.8168	-0.000056
264.0255	-0.001196
264.2342	-0.000035
264.4429	0.000134
264.6517	0.000493
264.8604	-0.001175
265.0692	0.000070
265.2780	-0.000521
265.4868	-0.001259
265.6956	-0.000183
265.9044	0.000070
266.1133	-0.000668
266.3221	0.000535
266.5310	-0.000690
266.7399	-0.000690
266.9488	0.001675
267.1577	0.000851
267.3666	-0.000183
267.5755	0.001780
267.7845	0.000471
267.9935	-0.000668
268.2024	-0.000246
268.4114	0.001168
268.6205	-0.001112
268.8295	0.000366
269.0385	-0.000288
269.2476	0.000239
269.4566	-0.000415
269.6657	0.000345
269.8748	-0.001027
270.0839	0.000303
270.2931	-0.000267
270.5022	0.000493
270.7114	-0.000352
270.9205	0.000134
271.1297	-0.000246
271.3389	0.001527
271.5481	-0.000014
271.7573	0.000408
271.9666	-0.000774
272.1758	-0.000584
272.3851	-0.000183
272.5944	0.000176
272.8037	-0.000120
273.0130	0.001590
273.2223	-0.000267
273.4316	0.000936
273.6410	-0.000204
273.8504	0.001696
274.0597	0.000324
274.2691	0.000281
274.4785	-0.000183
274.6880	0.000028
274.8974	-0.000879
275.1069	-0.000035
275.3163	0.000661
275.5258	0.000155
275.7353	-0.000099
275.9448	0.000746
276.1543	-0.000352
276.3639	-0.000647
276.5734	-0.000246
276.7830	-0.000690
276.9926	-0.001027
277.2022	0.001463
277.4118	0.000936
277.6214	0.000007
277.8310	0.000661
278.0407	0.000661
278.2503	0.000429
278.4600	0.000345
278.6697	-0.001323
278.8794	0.000134
279.0891	0.000345
279.2989	0.000915
279.5086	-0.000795
279.7184	0.000957
279.9281	0.000725
280.1379	-0.000162
280.3477	0.000619
280.5576	0.000324
280.7674	-0.000288
280.9772	0.000746
281.1871	0.001949
281.3970	0.000049
281.6069	0.000113
281.8168	0.000746
282.0267	-0.000331
282.2366	0.000704
282.4466	0.001358
282.6565	-0.000204
282.8665	-0.000563
283.0765	-0.000394
283.2865	-0.000373
283.4965	0.000957
283.7065	-0.000246
283.9166	0.000978
284.1266	-0.000162
284.3367	0.000894
284.5468	-0.000141
284.7569	-0.000331
284.9670	-0.000964
285.1771	0.000134
285.3873	-0.000542
285.5974	0.001295
285.8076	0.000345
286.0178	0.000134
286.2280	-0.000626
286.4382	0.000725
286.6484	0.000113
286.8587	-0.000162
287.0689	0.000091
287.2792	-0.000225
287.4895	-0.000500
287.6998	0.000851
287.9101	-0.000858
288.1204	-0.001112
288.3308	-0.000816
288.5411	-0.000985
288.7515	-0.000668
288.9619	0.002181
289.1723	0.000872
289.3827	0.000345
289.5931	0.000830
289.8035	0.001126
290.0140	0.000091
290.2245	0.000682
290.4349	0.000429
290.6454	0.000725
290.8559	-0.000436
291.0665	0.000113
291.2770	-0.000246
291.4875	0.001020
291.6981	0.000746
291.9087	-0.000246
292.1193	0.000324
292.3299	0.001696
292.5405	-0.001281
292.7511	0.002033
292.9618	0.000894
293.1724	-0.000922
293.3831	0.000134
293.5938	0.001062
293.8045	-0.000056
294.0152	0.000514
294.2260	0.000176
294.4367	0.000113
294.6475	-0.000267
294.8582	0.000429
295.0690	-0.000162
295.2798	0.000598
295.4906	0.000091
295.7015	0.001273
295.9123	-0.000246
296.1232	0.002160
296.3340	0.000493
296.5449	-0.000120
296.7558	0.001062
296.9667	0.000091
297.1777	-0.000183
297.3886	-0.000056
297.5995	0.000767
297.8105	0.000366
298.0215	0.000598
298.2325	0.000260
298.4435	0.000471
298.6545	0.000725
298.8656	-0.000985
299.0766	0.000936
299.2877	0.000155
299.4988	0.000872
299.7099	0.000007
299.9210	0.000155
300.1321	-0.000204
300.3432	-0.000563
300.5544	-0.000626
300.7655	0.001865
300.9767	0.000218
301.1879	0.000704
301.3991	0.001210
301.6103	0.000809
301.8215	0.001485
302.0328	0.000471
302.2441	-0.001386
302.4553	0.000366
302.6666	-0.000626
302.8779	0.001020
303.0892	0.000767
303.3006	0.000661
303.5119	0.000408
303.7233	0.001400
303.9346	-0.000415
304.1460	-0.001259
304.3574	0.001569
304.5688	-0.000521
304.7803	0.000303
304.9917	-0.000183
305.2031	0.000957
305.4146	0.000851
305.6261	0.001020
305.8376	-0.000246
306.0491	-0.000584
306.2606	0.000028
306.4722	-0.000014
306.6837	0.000725
306.8953	0.001421
307.1069	0.000577
307.3184	0.000725
307.5301	0.001865
307.7417	0.000577
307.9533	0.001379
308.1650	0.000366
308.3766	0.000682
308.5883	-0.000753
308.8000	0.002287
309.0117	-0.000732
309.2234	0.001379
309.4351	0.000028
309.6469	0.000007
309.8586	0.000408
310.0704	0.000894
310.2822	0.001337
310.4940	0.000324
310.7058	-0.000774
310.9176	0.000830
311.1295	-0.000225
311.3413	-0.000225
311.5532	0.000978
311.7651	-0.000668
311.9770	0.001569
312.1889	-0.000732
312.4008	0.000197
312.6127	0.000978
312.8247	0.000725
313.0366	0.001611
313.2486	0.000281
313.4606	0.001126
313.6726	0.001696
313.8846	0.000851
314.0967	-0.001006
314.3087	0.000493
314.5208	0.001231
314.7328	0.001717
314.9449	0.001147
315.1570	0.003279
315.3692	0.000556
315.5813	0.000915
315.7934	0.000682
316.0056	0.001780
316.2177	0.000113
316.4299	0.000704
316.6421	0.000746
316.8543	0.000682
317.0666	0.000070
317.2788	0.000999
317.4911	-0.000816
317.7033	0.000070
317.9156	0.001653
318.1279	0.000134
318.3402	0.000809
318.5525	0.001316
318.7649	0.001717
318.9772	0.002202
319.1896	0.000767
319.4019	0.000704
319.6143	0.001991
319.8267	0.000134
320.0392	0.000260
320.2516	0.000450
320.4640	0.002054
320.6765	0.001675
320.8890	0.001210
321.1014	0.000957
321.3139	0.001485
321.5265	0.001886
321.7390	0.000809
321.9515	0.001506
322.1641	0.002772
322.3766	0.001780
322.5892	0.001337
322.8018	0.001527
323.0144	0.001316
323.2270	0.001949
323.4397	0.002434
323.6523	0.002498
323.8650	0.001780
324.0777	0.003131
324.2904	0.001527
324.5031	0.002603
324.7158	0.002519
324.9285	0.002308
325.1412	0.003469
325.3540	0.002223
325.5668	0.002962
325.7796	0.002582
325.9924	0.003279
326.2052	0.002793
326.4180	0.002244
326.6308	0.001843
326.8437	0.002857
327.0566	0.003870
327.2694	0.002033
327.4823	0.001801
327.6952	0.002350
327.9082	0.003553
328.1211	0.002688
328.3340	0.002751
328.5470	0.001843
328.7600	0.002772
328.9730	0.002793
329.1860	0.003448
329.3990	0.001062
329.6120	0.004461
329.8251	0.001865
330.0381	0.003870
330.2512	0.004017
330.4643	0.003426
330.6774	0.002793
330.8905	0.002540
331.1036	0.002350
331.3167	0.003110
331.5299	0.004060
331.7431	0.003384
331.9562	0.002878
332.1694	0.003236
332.3826	0.002540
332.5959	0.004186
332.8091	0.002308
333.0223	0.003891
333.2356	0.004334
333.4489	0.002962
333.6622	0.002456
333.8755	0.003743
334.0888	0.002561
334.3021	0.005010
334.5154	0.002371
334.7288	0.003131
334.9422	0.004587
335.1555	0.004904
335.3689	0.003110
335.5823	0.004229
335.7958	0.002371
336.0092	0.004313
336.2227	0.003363
336.4361	0.005833
336.6496	0.003194
336.8631	0.003933
337.0766	0.004060
337.2901	0.004229
337.5036	0.004419
337.7172	0.004714
337.9307	0.005284
338.1443	0.003300
338.3579	0.004946
338.5715	0.005643
338.7851	0.003490
338.9987	0.006044
339.2124	0.005727
339.4260	0.004587
339.6397	0.004545
339.8533	0.004081
340.0670	0.003616
340.2807	0.007078
340.4945	0.004207
340.7082	0.006529
340.9219	0.006149
341.1357	0.006761
341.3495	0.006677
341.5633	0.006825
341.7771	0.004883
341.9909	0.006234
342.2047	0.004925
342.4185	0.005474
342.6324	0.005980
342.8463	0.006761
343.0601	0.005031
343.2740	0.005896
343.4879	0.005200
343.7019	0.005917
343.9158	0.005432
344.1297	0.006213
344.3437	0.006360
344.5577	0.006424
344.7717	0.005748
344.9857	0.006761
345.1997	0.006107
345.4137	0.004841
345.6277	0.005791
345.8418	0.005368
346.0559	0.006529
346.2699	0.006192
346.4840	0.006213
346.6981	0.007036
346.9123	0.006149
347.1264	0.007184
347.3406	0.007226
347.5547	0.008155
347.7689	0.007163
347.9831	0.007247
348.1973	0.006339
348.4115	0.008091
348.6257	0.006951
348.8400	0.007416
349.0542	0.008155
349.2685	0.007120
349.4828	0.006973
349.6971	0.008155
349.9114	0.007395
350.1257	0.007711
350.3400	0.007690
350.5544	0.008176
350.7687	0.007078
350.9831	0.009315
351.1975	0.008387
351.4119	0.007078
351.6263	0.007585
351.8407	0.008703
352.0552	0.009189
352.2696	0.008260
352.4841	0.007943
352.6986	0.006740
352.9131	0.009168
353.1276	0.008366
353.3421	0.008302
353.5566	0.008450
353.7712	0.010033
353.9858	0.008302
354.2003	0.008133
354.4149	0.009252
354.6295	0.008513
354.8441	0.009062
355.0588	0.007247
355.2734	0.008281
355.4881	0.007922
355.7027	0.009843
355.9174	0.009695
356.1321	0.006994
356.3468	0.009147
356.5615	0.009252
356.7763	0.009041
356.9910	0.008978
357.2058	0.008387
357.4206	0.010075
357.6353	0.008281
357.8501	0.011046
358.0650	0.007606
358.2798	0.009928
358.4946	0.008007
358.7095	0.009505
358.9243	0.008936
359.1392	0.011152
359.3541	0.010308
359.5690	0.009527
359.7839	0.009210
359.9989	0.009147
360.2138	0.011131
360.4288	0.009759
360.6438	0.009337
360.8587	0.010519
361.0737	0.009083
361.2888	0.011004
361.5038	0.010645
361.7188	0.009970
361.9339	0.010202
362.1489	0.009104
362.3640	0.010709
362.5791	0.008556
362.7942	0.011342
363.0093	0.011785
363.2245	0.009928
363.4396	0.009590
363.6548	0.008577
363.8699	0.010941
364.0851	0.010329
364.3003	0.010624
364.5155	0.011131
364.7308	0.010751
364.9460	0.009906
365.1612	0.010962
365.3765	0.009611
365.5918	0.010856
365.8071	0.012334
366.0224	0.011025
366.2377	0.010962
366.4530	0.011194
366.6684	0.011869
366.8837	0.012608
367.0991	0.012482
367.3145	0.013347
367.5299	0.013368
367.7453	0.013073
367.9607	0.012144
368.1761	0.011848
368.3916	0.012629
368.6070	0.014255
368.8225	0.010709
369.0380	0.014001
369.2535	0.012967
369.4690	0.010962
369.6845	0.013347
369.9001	0.014001
370.1156	0.013706
370.3312	0.013030
370.5468	0.011996
370.7624	0.011658
370.9780	0.013833
371.1936	0.010899
371.4092	0.012503
371.6249	0.013579
371.8405	0.013263
372.0562	0.013389
372.2719	0.012418
372.4876	0.013600
372.7033	0.012165
372.9190	0.016598
373.1348	0.011405
373.3505	0.014086
373.5663	0.014487
373.7820	0.015120
373.9978	0.014128
374.2136	0.013917
374.4294	0.014846
374.6453	0.015373
374.8611	0.013453
375.0770	0.014635
375.2928	0.016154
375.5087	0.015394
375.7246	0.015394
375.9405	0.017168
376.1564	0.016154
376.3724	0.017104
376.5883	0.015120
376.8043	0.017125
377.0203	0.016492
377.2362	0.017252
377.4522	0.017970
377.6682	0.019067
377.8843	0.018413
378.1003	0.019764
378.3164	0.018350
378.5324	0.017885
378.7485	0.017822
378.9646	0.021115
379.1807	0.020059
379.3968	0.020186
379.6129	0.019025
379.8291	0.020756
380.0452	0.019320
380.2614	0.020460
380.4776	0.019743
380.6938	0.021241
380.9100	0.019236
381.1262	0.022086
381.3424	0.020904
381.5587	0.020291
381.7749	0.019595
381.9912	0.021157
382.2075	0.021938
382.4238	0.021727
382.6401	0.020692
382.8564	0.022297
383.0728	0.022297
383.2891	0.021748
383.5055	0.021115
383.7219	0.023183
383.9382	0.020080
384.1546	0.022824
384.3711	0.022149
384.5875	0.023035
384.8039	0.023732
385.0204	0.023141
385.2368	0.021685
385.4533	0.023120
385.6698	0.023289
385.8863	0.022972
386.1028	0.023795
386.3194	0.022254
386.5359	0.022698
386.7525	0.023373
386.9690	0.024830
387.1856	0.025146
387.4022	0.024386
387.6188	0.025421
387.8355	0.025188
388.0521	0.024070
388.2687	0.025969
388.4854	0.026518
388.7021	0.024640
388.9188	0.026877
389.1355	0.024239
389.3522	0.024872
389.5689	0.024766
389.7856	0.024787
390.0024	0.025547
390.2192	0.025421
390.4359	0.024175
390.6527	0.025948
390.8695	0.025484
391.0863	0.026455
391.3032	0.026370
391.5200	0.026392
391.7369	0.025843
391.9537	0.029262
392.1706	0.028861
392.3875	0.028376
392.6044	0.028376
392.8213	0.031415
393.0383	0.031394
393.2552	0.030972
393.4722	0.030381
393.6891	0.030085
393.9061	0.028924
394.1231	0.031521
394.3401	0.029980
394.5572	0.029283
394.7742	0.030676
394.9912	0.030465
395.2083	0.031246
395.4254	0.031394
395.6425	0.030212
395.8596	0.032365
396.0767	0.027890
396.2938	0.031732
396.5109	0.030676
396.7281	0.031732
396.9453	0.032829
397.1624	0.033040
397.3796	0.032766
397.5968	0.032449
397.8140	0.032766
398.0313	0.034771
398.2485	0.035067
398.4658	0.034391
398.6830	0.036692
398.9003	0.037304
399.1176	0.037895
399.3349	0.034729
399.5522	0.035447
399.7696	0.033484
399.9869	0.033653
400.2043	0.034391
400.4216	0.033209
400.6390	0.033505
400.8564	0.034286
401.0738	0.035995
401.2912	0.034349
401.5087	0.034771
401.7261	0.031394
401.9436	0.032386
402.1610	0.034307
402.3785	0.035003
402.5960	0.034982
402.8135	0.032618
403.0310	0.032323
403.2486	0.033547
403.4661	0.032112
403.6837	0.034813
403.9013	0.032766
404.1189	0.035658
404.3365	0.034412
404.5541	0.034750
404.7717	0.035700
404.9893	0.036249
405.2070	0.036502
405.4246	0.037874
405.6423	0.036481
405.8600	0.037093
406.0777	0.039119
406.2954	0.035637
406.5131	0.034877
406.7309	0.034349
406.9486	0.031056
407.1664	0.031394
407.3842	0.032492
407.6020	0.033547
407.8198	0.032133
408.0376	0.034645
408.2554	0.036608
408.4733	0.034518
408.6911	0.034623
408.9090	0.035679
409.1269	0.034729
409.3448	0.034497
409.5627	0.035974
409.7806	0.037051
409.9985	0.035046
410.2165	0.036755
410.4344	0.033758
410.6524	0.033526
410.8704	0.033716
411.0884	0.033463
411.3064	0.035025
411.5244	0.035299
411.7424	0.033463
411.9605	0.035447
412.1785	0.036523
412.3966	0.036143
412.6147	0.037220
412.8328	0.036671
413.0509	0.038275
413.2690	0.035784
413.4871	0.038254
413.7053	0.036164
413.9234	0.038571
414.1416	0.035658
414.3598	0.036671
414.5780	0.035046
414.7962	0.035447
415.0144	0.034286
415.2326	0.035236
415.4509	0.034940
415.6692	0.037579
415.8874	0.035404
416.1057	0.035362
416.3240	0.037642
416.5423	0.036333
416.7606	0.038064
416.9790	0.036101
417.1973	0.035594
417.4157	0.036143
417.6341	0.035721
417.8524	0.036164
418.0708	0.036017
418.2893	0.035468
418.5077	0.036840
418.7261	0.036270
418.9446	0.035003
419.1630	0.040745
419.3815	0.038993
419.6000	0.039795
419.8185	0.036903
420.0370	0.039098
420.2555	0.038191
420.4741	0.037980
420.6926	0.041293
420.9112	0.042560
421.1298	0.040702
421.3483	0.044059
421.5669	0.044861
421.7856	0.046275
422.0042	0.045726
422.2228	0.045789
422.4415	0.045409
422.6601	0.044607
422.8788	0.041589
423.0975	0.043826
423.3162	0.043636
423.5349	0.042813
423.7536	0.042328
423.9724	0.041040
424.1911	0.040766
424.4099	0.040829
424.6287	0.041589
424.8475	0.042792
425.0663	0.042982
425.2851	0.041652
425.5039	0.041673
425.7228	0.038972
425.9416	0.039795
426.1605	0.039689
426.3793	0.039668
426.5982	0.039204
426.8171	0.037600
427.0361	0.040534
427.2550	0.041125
427.4739	0.041441
427.6929	0.040428
427.9118	0.041293
428.1308	0.040491
428.3498	0.039689
428.5688	0.038549
428.7878	0.040154
429.0068	0.041948
429.2259	0.041948
429.4449	0.042497
429.6640	0.048681
