# Wavelength (nm)	Intensity (a.u.)
197.7802	0.001242
197.9842	-0.000679
198.1882	0.001094
198.3922	-0.000215
198.5963	0.001706
198.8003	0.000271
199.0044	0.001938
199.2085	-0.000341
199.4126	0.001368
199.6168	0.001579
199.8209	-0.000468
200.0251	0.000925
200.2292	0.000208
200.4334	-0.000046
200.6376	0.000904
200.8418	0.000819
201.0461	-0.000383
201.2503	0.000587
201.4546	0.001854
201.6589	-0.000616
201.8631	0.001009
202.0674	-0.000109
202.2718	0.001009
202.4761	0.000186
202.6805	-0.000362
202.8848	-0.001080
203.0892	0.001389
203.2936	0.000419
203.4980	-0.000278
203.7024	-0.000151
203.9069	0.001220
204.1113	0.000967
204.3158	-0.000278
204.5203	0.000566
204.7248	0.000186
204.9293	0.000419
205.1338	0.001326
205.3384	0.000271
205.5430	0.000651
205.7475	0.001178
205.9521	0.000250
206.1567	-0.000594
206.3614	0.000883
206.5660	-0.001650
206.7706	-0.001143
206.9753	-0.000341
207.1800	-0.000932
207.3847	0.000397
207.5894	-0.001861
207.7941	0.000819
207.9989	0.000102
208.2036	-0.000679
208.4084	0.000419
208.6132	-0.001270
208.8180	0.000250
209.0228	0.000988
209.2276	-0.000172
209.4325	-0.001122
209.6373	0.000545
209.8422	0.001199
210.0471	0.001537
210.2520	0.000630
210.4569	0.000271
210.6618	-0.000953
210.8668	0.000208
211.0718	-0.000046
211.2767	0.001389
211.4817	0.001368
211.6867	0.000165
211.8918	0.000587
212.0968	-0.000088
212.3018	-0.000193
212.5069	0.001094
212.7120	0.001157
212.9171	-0.000130
213.1222	0.000651
213.3273	0.001052
213.5325	0.000440
213.7376	0.000334
213.9428	0.000355
214.1480	-0.000447
214.3532	0.000144
214.5584	0.000165
214.7636	-0.000890
214.9689	0.000545
215.1741	-0.000763
215.3794	-0.000383
215.5847	-0.000784
215.7900	0.000566
215.9953	-0.000383
216.2007	0.000735
216.4060	0.001558
216.6114	0.000967
216.8168	-0.000742
217.0222	0.001157
217.2276	-0.000067
217.4330	-0.000404
217.6384	0.001115
217.8439	0.000292
218.0494	-0.000193
218.2548	0.000208
218.4603	-0.000700
218.6659	0.000292
218.8714	-0.000193
219.0769	0.001073
219.2825	-0.000742
219.4881	0.001094
219.6936	0.000608
219.8992	-0.000004
220.1049	-0.000004
220.3105	0.000967
220.5161	0.000165
220.7218	0.001242
220.9275	-0.000341
221.1332	-0.000004
221.3389	0.000039
221.5446	-0.000805
221.7503	0.000482
221.9561	0.000545
222.1618	-0.000383
222.3676	0.000587
222.5734	0.000524
222.7792	0.000841
222.9850	0.000165
223.1909	0.001474
223.3967	0.000440
223.6026	0.000229
223.8085	-0.000067
224.0144	0.000777
224.2203	0.000608
224.4262	0.000883
224.6322	-0.000278
224.8381	0.000081
225.0441	0.000039
225.2501	0.000862
225.4561	0.001136
225.6621	-0.000046
225.8681	-0.000383
226.0742	0.001094
226.2802	0.000503
226.4863	-0.000320
226.6924	0.000925
226.8985	0.000208
227.1046	0.001727
227.3107	0.001115
227.5169	0.000777
227.7230	0.001664
227.9292	0.000841
228.1354	0.000123
228.3416	0.000841
228.5478	0.001115
228.7541	0.000292
228.9603	0.000608
229.1666	0.000081
229.3729	-0.000404
229.5791	-0.000848
229.7855	-0.001016
229.9918	0.000397
230.1981	0.000208
230.4045	0.000144
230.6108	0.001516
230.8172	0.000355
231.0236	0.000292
231.2300	0.000819
231.4364	-0.000046
231.6429	-0.000616
231.8493	-0.000426
232.0558	-0.000468
232.2623	0.001284
232.4688	0.001685
232.6753	0.000397
232.8818	-0.000046
233.0884	0.000376
233.2949	-0.001861
233.5015	0.000482
233.7081	0.001094
233.9147	-0.000700
234.1213	0.001980
234.3279	0.001052
234.5346	-0.000299
234.7413	-0.000067
234.9479	0.000397
235.1546	0.000397
235.3613	0.001389
235.5680	0.001115
235.7748	0.000608
235.9815	0.000397
236.1883	0.000165
236.3951	0.000503
236.6018	0.000524
236.8087	0.000883
237.0155	0.000292
237.2223	-0.000109
237.4292	0.000440
237.6360	0.000440
237.8429	-0.000341
238.0498	0.000334
238.2567	0.000524
238.4636	0.001643
238.6706	-0.000109
238.8775	0.000756
239.0845	0.000440
239.2915	0.001136
239.4985	-0.000130
239.7055	0.001284
239.9125	-0.000932
240.1195	0.000397
240.3266	0.000144
240.5337	0.000672
240.7407	0.001115
240.9478	-0.000383
241.1549	0.001052
241.3621	0.000482
241.5692	0.000545
241.7764	0.000461
241.9835	0.000102
242.1907	0.001115
242.3979	0.000566
242.6051	0.000630
242.8124	-0.000679
243.0196	0.000503
243.2269	0.000714
243.4341	0.000186
243.6414	-0.000426
243.8487	0.000946
244.0560	-0.000531
244.2634	-0.000046
244.4707	0.001199
244.6781	0.001790
244.8854	0.000672
245.0928	0.000608
245.3002	0.000271
245.5076	-0.000130
245.7151	0.000693
245.9225	0.001495
246.1300	0.001052
246.3375	0.000292
246.5449	-0.001607
246.7524	-0.000004
246.9600	0.000271
247.1675	0.001537
247.3750	-0.000004
247.5826	0.000841
247.7902	0.000039
247.9978	-0.000025
248.2054	0.000587
248.4130	0.000165
248.6206	0.000376
248.8283	0.000566
249.0359	-0.000362
249.2436	0.000081
249.4513	-0.000468
249.6590	-0.000025
249.8667	0.000608
250.0745	-0.000172
250.2822	0.000925
250.4900	-0.000067
250.6978	0.001073
250.9056	0.000482
251.1134	-0.000151
251.3212	0.002001
251.5290	0.001178
251.7369	-0.000763
251.9447	-0.000721
252.1526	0.001326
252.3605	-0.000215
252.5684	0.000651
252.7763	-0.001016
252.9843	-0.000341
253.1922	0.000756
253.4002	0.000208
253.6082	0.001009
253.8162	0.000545
254.0242	0.000714
254.2322	0.000735
254.4402	0.001284
254.6483	0.000334
254.8564	-0.000193
255.0644	0.000355
255.2725	-0.000594
255.4806	0.000841
255.6888	0.000397
255.8969	0.000292
256.1051	0.000039
256.3132	0.001453
256.5214	0.001516
256.7296	-0.000067
256.9378	0.000756
257.1460	0.000630
257.3543	0.000461
257.5625	0.000292
257.7708	-0.000531
257.9791	-0.000763
258.1874	-0.000426
258.3957	0.001178
258.6040	0.000229
258.8124	-0.000109
259.0207	0.000144
259.2291	0.000461
259.4375	0.000060
259.6459	0.000102
259.8543	0.001052
260.0627	0.000545
260.2711	0.000419
260.4796	-0.000236
260.6881	-0.000679
260.8965	-0.000573
261.1050	0.000798
261.3135	0.000482
261.5221	0.001347
261.7306	0.000102
261.9392	-0.000594
262.1477	0.001009
262.3563	-0.002219
262.5649	0.000714
262.7735	0.000904
262.9822	-0.000932
263.1908	0.000461
263.3995	0.000735
263.6081	-0.001417
263.8168	0.000376
264.0255	0.000819
264.2342	-0.000742
264.4429	-0.000637
264.6517	-0.000510
264.8604	0.000165
265.0692	0.000988
265.2780	-0.000236
265.4868	-0.000932
265.6956	0.000798
265.9044	0.001474
266.1133	-0.001270
266.3221	0.000566
266.5310	-0.000320
266.7399	0.000819
266.9488	0.000419
267.1577	0.001094
267.3666	0.001094
267.5755	0.000988
267.7845	0.000482
267.9935	0.001389
268.2024	-0.000890
268.4114	0.001495
268.6205	-0.000784
268.8295	0.000186
269.0385	0.000018
269.2476	0.000545
269.4566	-0.000510
269.6657	0.000925
269.8748	-0.000320
270.0839	-0.002367
270.2931	-0.000362
270.5022	0.001052
270.7114	-0.000426
270.9205	0.000081
271.1297	0.000355
271.3389	0.000883
271.5481	0.000039
271.7573	-0.000109
271.9666	-0.001312
272.1758	-0.000932
272.3851	-0.000531
272.5944	-0.000510
272.8037	-0.000067
273.0130	0.000081
273.2223	0.000397
273.4316	0.001558
273.6410	-0.001291
273.8504	0.000355
274.0597	0.001115
274.2691	0.000925
274.4785	-0.001354
274.6880	0.000630
274.8974	0.001220
275.1069	0.000186
275.3163	-0.001059
275.5258	0.002149
275.7353	-0.000573
275.9448	0.000904
276.1543	0.001368
276.3639	0.001136
276.5734	0.000186
276.7830	0.000208
276.9926	0.001199
277.2022	0.000229
277.4118	-0.000151
277.6214	-0.000995
277.8310	0.000735
278.0407	-0.000172
278.2503	-0.000236
278.4600	0.000651
278.6697	-0.000320
278.8794	0.000608
279.0891	-0.000320
279.2989	0.001495
279.5086	0.000060
279.7184	-0.000658
279.9281	-0.000088
280.1379	0.000229
280.3477	-0.000088
280.5576	0.001537
280.7674	-0.000193
280.9772	0.000819
281.1871	0.000988
281.3970	-0.000299
281.6069	-0.000299
281.8168	0.001178
282.0267	-0.000510
282.2366	0.000608
282.4466	0.000756
282.6565	-0.000088
282.8665	0.000208
283.0765	0.001242
283.2865	-0.001059
283.4965	0.001178
283.7065	-0.000257
283.9166	0.000988
284.1266	0.001052
284.3367	-0.000109
284.5468	0.001685
284.7569	0.001389
284.9670	0.001199
285.1771	0.002423
285.3873	0.000461
285.5974	0.001980
285.8076	0.000461
286.0178	0.001811
286.2280	0.000904
286.4382	0.000503
286.6484	0.000229
286.8587	0.001136
287.0689	0.000440
287.2792	-0.000426
287.4895	0.000482
287.6998	-0.000784
287.9101	0.001389
288.1204	-0.000784
288.3308	-0.000594
288.5411	0.001326
288.7515	-0.001417
288.9619	0.000524
289.1723	0.000313
289.3827	-0.000088
289.5931	0.000292
289.8035	0.000735
290.0140	-0.000468
290.2245	-0.000573
290.4349	-0.000679
290.6454	0.000862
290.8559	-0.000025
291.0665	0.000693
291.2770	-0.000341
291.4875	0.000440
291.6981	-0.001143
291.9087	0.000419
292.1193	-0.000700
292.3299	0.000735
292.5405	-0.000447
292.7511	0.001896
292.9618	0.001220
293.1724	0.001178
293.3831	-0.000088
293.5938	-0.000215
293.8045	0.001305
294.0152	0.000039
294.2260	0.000461
294.4367	0.000988
294.6475	0.000208
294.8582	0.001347
295.0690	0.001537
295.2798	0.000777
295.4906	0.000250
295.7015	0.001980
295.9123	0.000566
296.1232	0.000186
296.3340	0.000165
296.5449	0.000397
296.7558	-0.000404
296.9667	-0.000383
297.1777	0.000630
297.3886	0.000608
297.5995	-0.001185
297.8105	0.001389
298.0215	-0.000172
298.2325	0.000672
298.4435	0.001431
298.6545	-0.000447
298.8656	-0.000383
299.0766	0.001495
299.2877	0.000081
299.4988	0.001643
299.7099	0.000503
299.9210	0.000503
300.1321	0.000819
300.3432	0.000123
300.5544	-0.000046
300.7655	0.000376
300.9767	0.000672
301.1879	0.000925
301.3991	-0.000341
301.6103	0.000419
301.8215	0.001579
302.0328	0.000545
302.2441	-0.000447
302.4553	0.000419
302.6666	-0.000299
302.8779	0.000461
303.0892	0.000545
303.3006	-0.000130
303.5119	-0.000215
303.7233	-0.000004
303.9346	0.000123
304.1460	0.001875
304.3574	-0.000531
304.5688	-0.000362
304.7803	0.000229
304.9917	0.001474
305.2031	0.000018
305.4146	0.001643
305.6261	0.000587
305.8376	0.000123
306.0491	0.000651
306.2606	0.000144
306.4722	-0.000848
306.6837	0.000081
306.8953	0.000440
307.1069	0.000271
307.3184	0.000630
307.5301	0.000440
307.7417	0.000630
307.9533	0.000798
308.1650	-0.000193
308.3766	-0.000172
308.5883	0.000630
308.8000	-0.000046
309.0117	0.000060
309.2234	-0.000362
309.4351	-0.000278
309.6469	-0.000046
309.8586	0.000144
310.0704	-0.000109
310.2822	-0.000510
310.4940	0.001769
310.7058	0.001811
310.9176	-0.000341
311.1295	0.000672
311.3413	0.000229
311.5532	0.000946
311.7651	-0.000151
311.9770	0.000250
312.1889	0.000376
312.4008	-0.000299
312.6127	0.000186
312.8247	-0.000004
313.0366	0.000419
313.2486	0.000841
313.4606	0.002128
313.6726	0.001094
313.8846	-0.000468
314.0967	0.000419
314.3087	-0.000067
314.5208	0.000651
314.7328	-0.000067
314.9449	-0.000109
315.1570	0.000250
315.3692	0.000186
315.5813	-0.000130
315.7934	-0.000805
316.0056	-0.000299
316.2177	0.000060
316.4299	0.001220
316.6421	-0.000658
316.8543	-0.000890
317.0666	0.000524
317.2788	0.000440
317.4911	-0.000447
317.7033	0.001431
317.9156	0.000756
318.1279	-0.000911
318.3402	0.001643
318.5525	0.000862
318.7649	-0.000362
318.9772	0.000419
319.1896	0.000292
319.4019	0.000566
319.6143	0.000735
319.8267	0.000841
320.0392	-0.000088
320.2516	0.000904
320.4640	-0.000616
320.6765	0.001094
320.8890	-0.000067
321.1014	0.000777
321.3139	0.000672
321.5265	0.000503
321.7390	-0.000299
321.9515	-0.001080
322.1641	0.000165
322.3766	0.001431
322.5892	0.000102
322.8018	0.000313
323.0144	-0.000172
323.2270	0.000081
323.4397	-0.000236
323.6523	0.000250
323.8650	-0.000299
324.0777	-0.000679
324.2904	-0.000067
324.5031	0.000165
324.7158	0.000904
324.9285	-0.000278
325.1412	0.000123
325.3540	0.000123
325.5668	0.000988
325.7796	0.001242
325.9924	0.000229
326.2052	0.001009
326.4180	0.001094
326.6308	0.000756
326.8437	-0.000995
327.0566	-0.000215
327.2694	-0.000932
327.4823	-0.000151
327.6952	0.000587
327.9082	-0.000784
328.1211	-0.000299
328.3340	0.000946
328.5470	0.000313
328.7600	-0.000004
328.9730	-0.000193
329.1860	0.000841
329.3990	-0.001164
329.6120	0.000988
329.8251	-0.000067
330.0381	0.000735
330.2512	0.001558
330.4643	0.001220
330.6774	0.000608
330.8905	-0.000130
331.1036	0.001052
331.3167	0.000735
331.5299	0.000102
331.7431	0.002170
331.9562	-0.000510
332.1694	0.001790
332.3826	0.000440
332.5959	0.000250
332.8091	0.001347
333.0223	0.000397
333.2356	-0.000278
333.4489	-0.000447
333.6622	-0.000088
333.8755	0.000925
334.0888	-0.000025
334.3021	0.001431
334.5154	-0.000679
334.7288	0.000841
334.9422	0.000735
335.1555	0.000334
335.3689	0.000313
335.5823	0.000608
335.7958	0.001579
336.0092	0.001643
336.2227	0.000186
336.4361	0.000419
336.6496	-0.000341
336.8631	0.000461
337.0766	0.000545
337.2901	-0.000278
337.5036	-0.000616
337.7172	-0.000383
337.9307	0.000102
338.1443	0.001368
338.3579	-0.001143
338.5715	0.001199
338.7851	0.000102
338.9987	0.000461
339.2124	-0.000447
339.4260	0.000841
339.6397	0.000693
339.8533	0.000841
340.0670	0.000229
340.2807	0.000355
340.4945	0.000883
340.7082	-0.000362
340.9219	0.000566
341.1357	0.000735
341.3495	-0.000468
341.5633	-0.000025
341.7771	-0.000890
341.9909	0.000334
342.2047	0.000292
342.4185	0.002360
342.6324	-0.000404
342.8463	0.000060
343.0601	-0.000468
343.2740	0.000081
343.4879	-0.000341
343.7019	0.000229
343.9158	-0.000869
344.1297	0.000144
344.3437	0.000313
344.5577	-0.000341
344.7717	0.000250
344.9857	0.000566
345.1997	0.000081
345.4137	0.000440
345.6277	0.000313
345.8418	0.000735
346.0559	-0.000869
346.2699	0.000208
346.4840	0.000165
346.6981	-0.001164
346.9123	0.000039
347.1264	-0.000109
347.3406	0.000081
347.5547	-0.000067
347.7689	-0.000257
347.9831	0.000419
348.1973	-0.000616
348.4115	0.001748
348.6257	-0.000616
348.8400	-0.000004
349.0542	-0.000088
349.2685	0.001558
349.4828	0.000144
349.6971	0.000165
349.9114	0.000819
350.1257	0.001368
350.3400	-0.000004
350.5544	0.001537
350.7687	0.000777
350.9831	-0.000404
351.1975	-0.000489
351.4119	-0.001164
351.6263	0.000186
351.8407	0.000566
352.0552	0.001410
352.2696	0.000798
352.4841	0.000630
352.6986	0.001115
352.9131	0.000355
353.1276	-0.000025
353.3421	-0.000215
353.5566	0.001474
353.7712	-0.000700
353.9858	0.000186
354.2003	0.000630
354.4149	0.000229
354.6295	0.000967
354.8441	0.000018
355.0588	-0.000215
355.2734	0.000165
355.4881	-0.000151
355.7027	0.000714
355.9174	-0.000594
356.1321	0.000355
356.3468	0.000229
356.5615	0.000313
356.7763	-0.000700
356.9910	0.000229
357.2058	-0.000594
357.4206	0.000334
357.6353	-0.000025
357.8501	-0.000193
358.0650	0.000608
358.2798	0.001284
358.4946	0.000735
358.7095	0.000144
358.9243	-0.000088
359.1392	0.001284
359.3541	-0.000236
359.5690	-0.000130
359.7839	-0.000046
359.9989	-0.000383
360.2138	0.000946
360.4288	-0.000088
360.6438	0.001009
360.8587	0.000798
361.0737	-0.000784
361.2888	0.000503
361.5038	0.001136
361.7188	0.000060
361.9339	-0.000236
362.1489	0.000250
362.3640	-0.001628
362.5791	0.000355
362.7942	-0.000341
363.0093	0.000397
363.2245	0.000334
363.4396	0.000714
363.6548	-0.000531
363.8699	0.001643
364.0851	0.000503
364.3003	0.000883
364.5155	-0.000320
364.7308	0.001094
364.9460	0.000186
365.1612	-0.000172
365.3765	0.001558
365.5918	0.000355
365.8071	0.000693
366.0224	-0.000109
366.2377	-0.000426
366.4530	-0.000362
366.6684	-0.000489
366.8837	0.000208
367.0991	0.001643
367.3145	0.000292
367.5299	-0.001122
367.7453	-0.000278
367.9607	0.000883
368.1761	0.001368
368.3916	-0.001185
368.6070	0.000735
368.8225	0.000714
369.0380	0.000018
369.2535	0.000714
369.4690	0.001031
369.6845	0.000587
369.9001	0.002529
370.1156	0.000672
370.3312	0.000672
370.5468	-0.001375
370.7624	0.000988
370.9780	-0.000130
371.1936	0.001431
371.4092	-0.000299
371.6249	0.001410
371.8405	0.000419
372.0562	0.001685
372.2719	-0.000004
372.4876	0.001389
372.7033	0.000039
372.9190	0.000904
373.1348	0.000018
373.3505	0.000165
373.5663	0.000461
373.7820	0.001980
373.9978	0.000714
374.2136	0.001242
374.4294	0.002086
374.6453	0.002761
374.8611	0.000862
375.0770	0.002487
375.2928	-0.000594
375.5087	0.002318
375.7246	0.001896
375.9405	0.002022
376.1564	0.001305
376.3724	0.002402
376.5883	0.002655
376.8043	0.003120
377.0203	0.002065
377.2362	0.004428
377.4522	0.002508
377.6682	0.002592
377.8843	0.002613
378.1003	0.003331
378.3164	0.003331
378.5324	0.003289
378.7485	0.004006
378.9646	0.005547
379.1807	0.004006
379.3968	0.004217
379.6129	0.004956
379.8291	0.005715
380.0452	0.005040
380.2614	0.005061
380.4776	0.004513
380.6938	0.004766
380.9100	0.005800
381.1262	0.005441
381.3424	0.006517
381.5587	0.005842
381.7749	0.007741
381.9912	0.006960
382.2075	0.006201
382.4238	0.007678
382.6401	0.006918
382.8564	0.009493
383.0728	0.008733
383.2891	0.007994
383.5055	0.008206
383.7219	0.008269
383.9382	0.009493
384.1546	0.010506
384.3711	0.009936
384.5875	0.010675
384.8039	0.011455
385.0204	0.009830
385.2368	0.009007
385.4533	0.012553
385.6698	0.011687
385.8863	0.010843
386.1028	0.011118
386.3194	0.011983
386.5359	0.012764
386.7525	0.011899
386.9690	0.012933
387.1856	0.013291
387.4022	0.014431
387.6188	0.015950
387.8355	0.015992
388.0521	0.015106
388.2687	0.017174
388.4854	0.016710
388.7021	0.015507
388.9188	0.016689
389.1355	0.015528
389.3522	0.016182
389.5689	0.018250
389.7856	0.017069
390.0024	0.014895
390.2192	0.017301
390.4359	0.015824
390.6527	0.018314
390.8695	0.016520
391.0863	0.018440
391.3032	0.016330
391.5200	0.018419
391.7369	0.018166
391.9537	0.020044
392.1706	0.020867
392.3875	0.021247
392.6044	0.020909
392.8213	0.022724
393.0383	0.023104
393.2552	0.021901
393.4722	0.021880
393.6891	0.021395
393.9061	0.021479
394.1231	0.022577
394.3401	0.021585
394.5572	0.023990
394.7742	0.023758
394.9912	0.025025
395.2083	0.024560
395.4254	0.023969
395.6425	0.022176
395.8596	0.023379
396.0767	0.023653
396.2938	0.023125
396.5109	0.021944
396.7281	0.025425
396.9453	0.023927
397.1624	0.025784
397.3796	0.024898
397.5968	0.027451
397.8140	0.026249
398.0313	0.026565
398.2485	0.028802
398.4658	0.029836
398.6830	0.030680
398.9003	0.028950
399.1176	0.029435
399.3349	0.027873
399.5522	0.028844
399.7696	0.029055
399.9869	0.027240
400.2043	0.027114
400.4216	0.027768
400.6390	0.028950
400.8564	0.028739
401.0738	0.031102
401.2912	0.028760
401.5087	0.029942
401.7261	0.028211
401.9436	0.029013
402.1610	0.028485
402.3785	0.028190
402.5960	0.028507
402.8135	0.026818
403.0310	0.028042
403.2486	0.028570
403.4661	0.029984
403.6837	0.029519
403.9013	0.029920
404.1189	0.030469
404.3365	0.031018
404.5541	0.031693
404.7717	0.030005
404.9893	0.031524
405.2070	0.031946
405.4246	0.030786
405.6423	0.033318
405.8600	0.031440
406.0777	0.032094
406.2954	0.033571
406.5131	0.030258
406.7309	0.030553
406.9486	0.030596
407.1664	0.028401
407.3842	0.029287
407.6020	0.029245
407.8198	0.031609
408.0376	0.028443
408.2554	0.029794
408.4733	0.030933
408.6911	0.031398
408.9090	0.031609
409.1269	0.032917
409.3448	0.030427
409.5627	0.030659
409.7806	0.030216
409.9985	0.031714
410.2165	0.030765
410.4344	0.030406
410.6524	0.029583
410.8704	0.030997
411.0884	0.030342
411.3064	0.031229
411.5244	0.031651
411.7424	0.030553
411.9605	0.031925
412.1785	0.032706
412.3966	0.030997
412.6147	0.031102
412.8328	0.033951
413.0509	0.032284
413.2690	0.033023
413.4871	0.034289
413.7053	0.032558
413.9234	0.033930
414.1416	0.032812
414.3598	0.032031
414.5780	0.032242
414.7962	0.032495
415.0144	0.031229
415.2326	0.031862
415.4509	0.033402
415.6692	0.032368
415.8874	0.030807
416.1057	0.033719
416.3240	0.032980
416.5423	0.034289
416.7606	0.031714
416.9790	0.032812
417.1973	0.032242
417.4157	0.032010
417.6341	0.033255
417.8524	0.031461
418.0708	0.033803
418.2893	0.032010
418.5077	0.032706
418.7261	0.032052
418.9446	0.034669
419.1630	0.033297
419.3815	0.035428
419.6000	0.035006
419.8185	0.032917
420.0370	0.034521
420.2555	0.034204
420.4741	0.036251
420.6926	0.035724
420.9112	0.035977
421.1298	0.038404
421.3483	0.038931
421.5669	0.038193
421.7856	0.040831
422.0042	0.040936
422.2228	0.041506
422.4415	0.037876
422.6601	0.040430
422.8788	0.040873
423.0975	0.042245
423.3162	0.039986
423.5349	0.040514
423.7536	0.038383
423.9724	0.036019
424.1911	0.035660
424.4099	0.038699
424.6287	0.037285
424.8475	0.037539
425.0663	0.038910
425.2851	0.036061
425.5039	0.036082
425.7228	0.038277
425.9416	0.032685
426.1605	0.035133
426.3793	0.033677
426.5982	0.035850
426.8171	0.032706
427.0361	0.033023
427.2550	0.035745
427.4739	0.038193
427.6929	0.037412
427.9118	0.035977
428.1308	0.034753
428.3498	0.035386
428.5688	0.035027
428.7878	0.036209
