# Wavelength (nm)	Intensity (a.u.)
197.7802	0.000582
197.9842	0.000434
198.1882	0.000055
198.3922	0.000118
198.5963	0.001680
198.8003	-0.000937
199.0044	0.001342
199.2085	-0.000304
199.4126	-0.000621
199.6168	0.000941
199.8209	0.001490
200.0251	0.000055
200.2292	0.001004
200.4334	-0.000368
200.6376	-0.000346
200.8418	-0.000558
201.0461	0.000266
201.2503	-0.000157
201.4546	0.000160
201.6589	-0.000705
201.8631	0.001743
202.0674	0.000118
202.2718	0.000878
202.4761	-0.001127
202.6805	0.000055
202.8848	0.000076
203.0892	-0.000558
203.2936	0.000055
203.4980	0.001068
203.7024	-0.000747
203.9069	0.000983
204.1113	0.000139
204.3158	0.000603
204.5203	-0.001212
204.7248	-0.000368
204.9293	-0.000790
205.1338	0.001954
205.3384	-0.000980
205.5430	0.001300
205.7475	-0.000853
205.9521	0.000645
206.1567	0.000603
206.3614	0.001447
206.5660	-0.000705
206.7706	0.000413
206.9753	-0.000135
207.1800	-0.000325
207.3847	0.000603
207.5894	-0.000135
207.7941	-0.000009
207.9989	-0.000536
208.2036	0.001363
208.4084	0.001068
208.6132	-0.000811
208.8180	-0.000283
209.0228	0.000434
209.2276	0.000456
209.4325	0.000561
209.6373	0.000730
209.8422	-0.000663
210.0471	0.001954
210.2520	-0.000937
210.4569	0.000983
210.6618	-0.000790
210.8668	0.000793
211.0718	0.000456
211.2767	0.000308
211.4817	-0.001317
211.6867	0.000561
211.8918	0.001025
212.0968	0.000287
212.3018	-0.000009
212.5069	-0.001085
212.7120	-0.000705
212.9171	0.001046
213.1222	-0.000283
213.3273	0.000329
213.5325	-0.001001
213.7376	-0.000030
213.9428	-0.000811
214.1480	-0.000051
214.3532	-0.000135
214.5584	0.000667
214.7636	-0.001549
214.9689	0.000223
215.1741	-0.000769
215.3794	0.000139
215.5847	-0.000410
215.7900	0.001089
215.9953	-0.000114
216.2007	0.000012
216.4060	-0.000135
216.6114	0.000097
216.8168	0.000519
217.0222	0.000540
217.2276	0.000055
217.4330	0.000730
217.6384	-0.000304
217.8439	0.000413
218.0494	-0.001106
218.2548	-0.000769
218.4603	0.000329
218.6659	0.000941
218.8714	-0.000241
219.0769	-0.000515
219.2825	-0.000790
219.4881	-0.000916
219.6936	0.000434
219.8992	0.000329
220.1049	0.000371
220.3105	0.001046
220.5161	0.000582
220.7218	0.000519
220.9275	-0.000283
221.1332	0.000329
221.3389	0.001996
221.5446	-0.000241
221.7503	0.001173
221.9561	0.000856
222.1618	0.000329
222.3676	-0.000473
222.5734	-0.000283
222.7792	0.000097
222.9850	0.001975
223.1909	0.001215
223.3967	0.000287
223.6026	-0.000346
223.8085	-0.000790
224.0144	0.000329
224.2203	0.000477
224.4262	0.000076
224.6322	-0.000262
224.8381	-0.000093
225.0441	0.000540
225.2501	0.000266
225.4561	0.000308
225.6621	-0.000093
225.8681	0.001173
226.0742	0.001490
226.2802	-0.001001
226.4863	0.002228
226.6924	-0.000178
226.8985	0.001511
227.1046	0.000202
227.3107	0.000667
227.5169	-0.000684
227.7230	0.000413
227.9292	0.001384
228.1354	-0.000051
228.3416	0.000540
228.5478	-0.000241
228.7541	0.001701
228.9603	0.000498
229.1666	0.000793
229.3729	-0.000051
229.5791	-0.000009
229.7855	0.000202
229.9918	0.000519
230.1981	0.001996
230.4045	-0.000199
230.6108	0.000139
230.8172	0.001152
231.0236	-0.000346
231.2300	-0.000494
231.4364	0.001405
231.6429	0.000244
231.8493	0.001532
232.0558	-0.001317
232.2623	0.000266
232.4688	-0.000241
232.6753	0.000878
232.8818	-0.000536
233.0884	0.000941
233.2949	0.000139
233.5015	-0.000220
233.7081	-0.000958
233.9147	0.000667
234.1213	-0.000536
234.3279	0.000561
234.5346	0.000350
234.7413	0.001173
234.9479	0.000645
235.1546	0.001553
235.3613	0.000139
235.5680	0.001173
235.7748	0.001743
235.9815	0.000202
236.1883	0.002524
236.3951	-0.000093
236.6018	0.000139
236.8087	-0.000536
237.0155	0.000392
237.2223	-0.000663
237.4292	-0.000199
237.6360	0.000688
237.8429	0.000266
238.0498	-0.000199
238.2567	0.000920
238.4636	0.001827
238.6706	0.001363
238.8775	0.001004
239.0845	0.001004
239.2915	0.000350
239.4985	0.000223
239.7055	0.001131
239.9125	-0.000199
240.1195	-0.000536
240.3266	0.000540
240.5337	0.000076
240.7407	0.000329
240.9478	0.000920
241.1549	0.000139
241.3621	0.000097
241.5692	-0.000199
241.7764	0.001152
241.9835	-0.000283
242.1907	0.002017
242.3979	-0.000093
242.6051	0.000160
242.8124	-0.000304
243.0196	0.000139
243.2269	-0.000093
243.4341	0.000434
243.6414	-0.000262
243.8487	0.000962
244.0560	-0.000916
244.2634	0.000308
244.4707	0.001680
244.6781	-0.000642
244.8854	-0.000558
245.0928	0.002165
245.3002	-0.000241
245.5076	0.001068
245.7151	-0.000958
245.9225	0.000033
246.1300	0.000519
246.3375	0.000308
246.5449	0.000329
246.7524	0.000202
246.9600	0.000962
247.1675	-0.001254
247.3750	-0.000346
247.5826	-0.000937
247.7902	-0.000051
247.9978	0.000012
248.2054	-0.000705
248.4130	0.001004
248.6206	0.000308
248.8283	-0.000621
249.0359	0.000012
249.2436	0.000244
249.4513	-0.000536
249.6590	0.000350
249.8667	-0.001085
250.0745	-0.000009
250.2822	-0.000853
250.4900	0.000730
250.6978	0.000983
250.9056	0.001616
251.1134	-0.000389
251.3212	-0.000642
251.5290	-0.000621
251.7369	0.001089
251.9447	0.000456
252.1526	-0.000030
252.3605	-0.000747
252.5684	0.000181
252.7763	0.000540
252.9843	0.000266
253.1922	-0.000600
253.4002	-0.000368
253.6082	0.001384
253.8162	0.000434
254.0242	0.000941
254.2322	0.002397
254.4402	-0.000452
254.6483	-0.000220
254.8564	0.000266
255.0644	-0.000325
255.2725	-0.000431
255.4806	0.001089
255.6888	0.001025
255.8969	0.000814
256.1051	0.000202
256.3132	-0.000220
256.5214	0.000477
256.7296	0.000350
256.9378	0.000160
257.1460	0.001215
257.3543	-0.000431
257.5625	0.001680
257.7708	0.001257
257.9791	0.001384
258.1874	0.000709
258.3957	0.000055
258.6040	-0.000536
258.8124	-0.000325
259.0207	0.000097
259.2291	0.000624
259.4375	0.000139
259.6459	0.001321
259.8543	0.000329
260.0627	0.001152
260.2711	-0.000135
260.4796	0.001173
260.6881	0.000097
260.8965	0.000160
261.1050	0.000582
261.3135	-0.000178
261.5221	-0.000178
261.7306	0.000603
261.9392	0.000392
262.1477	0.001912
262.3563	-0.000262
262.5649	0.000329
262.7735	0.001194
262.9822	0.000878
263.1908	-0.000473
263.3995	0.000371
263.6081	-0.000199
263.8168	0.000730
264.0255	0.000498
264.2342	0.000667
264.4429	-0.000178
264.6517	0.000540
264.8604	-0.000684
265.0692	0.000033
265.2780	-0.000325
265.4868	-0.001845
265.6956	0.000287
265.9044	0.001300
266.1133	0.000645
266.3221	0.000139
266.5310	0.001089
266.7399	-0.000346
266.9488	0.001215
267.1577	0.000244
267.3666	0.001068
267.5755	0.000899
267.7845	0.000329
267.9935	-0.000558
268.2024	0.000308
268.4114	0.000371
268.6205	-0.000346
268.8295	0.001004
269.0385	0.000835
269.2476	0.000561
269.4566	0.000033
269.6657	0.001891
269.8748	0.000139
270.0839	0.000814
270.2931	-0.000705
270.5022	0.000244
270.7114	-0.000958
270.9205	-0.000030
271.1297	0.000244
271.3389	-0.000410
271.5481	0.000097
271.7573	0.000624
271.9666	-0.000621
272.1758	0.001405
272.3851	-0.001338
272.5944	0.001089
272.8037	-0.001001
273.0130	0.001954
273.2223	0.000266
273.4316	-0.000030
273.6410	0.000983
273.8504	0.001004
274.0597	-0.000157
274.2691	0.002102
274.4785	0.000287
274.6880	0.000434
274.8974	0.000350
275.1069	0.000941
275.3163	-0.000262
275.5258	-0.000536
275.7353	-0.000747
275.9448	0.000329
276.1543	-0.000114
276.3639	0.001089
276.5734	0.000181
276.7830	0.000920
276.9926	0.002460
277.2022	-0.000663
277.4118	0.000582
277.6214	0.000624
277.8310	-0.000621
278.0407	0.001701
278.2503	-0.000178
278.4600	0.000730
278.6697	0.000688
278.8794	-0.000958
279.0891	0.000561
279.2989	0.000688
279.5086	0.001447
279.7184	0.000181
279.9281	0.000772
280.1379	-0.000051
280.3477	-0.000410
280.5576	0.001279
280.7674	-0.000346
280.9772	0.000920
281.1871	-0.000663
281.3970	0.000709
281.6069	0.000308
281.8168	0.001363
282.0267	-0.000579
282.2366	0.001110
282.4466	-0.000726
282.6565	0.000160
282.8665	-0.000579
283.0765	-0.000558
283.2865	0.001490
283.4965	0.000793
283.7065	0.000793
283.9166	0.000498
284.1266	-0.000304
284.3367	-0.000072
284.5468	0.001068
284.7569	-0.000072
284.9670	-0.000072
285.1771	0.000434
285.3873	0.000477
285.5974	-0.000325
285.8076	-0.001929
286.0178	-0.000072
286.2280	0.001152
286.4382	0.001046
286.6484	0.000350
286.8587	0.001004
287.0689	0.000983
287.2792	-0.000410
287.4895	0.001933
287.6998	0.001194
287.9101	-0.000811
288.1204	-0.000262
288.3308	0.000519
288.5411	0.000181
288.7515	0.000329
288.9619	0.001722
289.1723	-0.000030
289.3827	0.001637
289.5931	-0.000241
289.8035	0.000498
290.0140	-0.000241
290.2245	0.001827
290.4349	0.000561
290.6454	0.001173
290.8559	0.002123
291.0665	0.001046
291.2770	0.000835
291.4875	-0.000241
291.6981	0.000477
291.9087	-0.000473
292.1193	-0.000262
292.3299	-0.000093
292.5405	-0.000241
292.7511	0.000371
292.9618	0.000012
293.1724	0.000540
293.3831	0.000033
293.5938	0.000645
293.8045	0.000371
294.0152	0.001447
294.2260	0.000223
294.4367	-0.000304
294.6475	0.000160
294.8582	0.000519
295.0690	0.001532
295.2798	0.000519
295.4906	-0.000410
295.7015	0.000582
295.9123	-0.000958
296.1232	0.000645
296.3340	-0.000705
296.5449	0.000223
296.7558	0.001848
296.9667	0.001046
297.1777	-0.000241
297.3886	-0.000114
297.5995	-0.000199
297.8105	0.000055
298.0215	0.000519
298.2325	0.000097
298.4435	0.000751
298.6545	0.000519
298.8656	-0.000874
299.0766	0.000772
299.2877	-0.000579
299.4988	0.000498
299.7099	0.000498
299.9210	-0.000072
300.1321	-0.000135
300.3432	0.000941
300.5544	0.000329
300.7655	0.000076
300.9767	-0.000346
301.1879	0.001511
301.3991	0.000793
301.6103	0.001637
301.8215	0.000582
302.0328	0.001321
302.2441	-0.000368
302.4553	0.001025
302.6666	0.000899
302.8779	0.000835
303.0892	0.000899
303.3006	0.000772
303.5119	-0.000368
303.7233	0.001279
303.9346	-0.001043
304.1460	0.001363
304.3574	0.000350
304.5688	0.001173
304.7803	-0.000536
304.9917	0.000941
305.2031	-0.000621
305.4146	0.000983
305.6261	-0.000199
305.8376	0.001236
306.0491	0.000434
306.2606	0.000076
306.4722	0.001110
306.6837	-0.000579
306.8953	-0.000093
307.1069	-0.000199
307.3184	0.000561
307.5301	-0.000368
307.7417	-0.000030
307.9533	0.000118
308.1650	-0.001233
308.3766	0.000097
308.5883	0.000139
308.8000	0.000266
309.0117	-0.000515
309.2234	0.001848
309.4351	-0.000114
309.6469	0.001658
309.8586	0.000688
310.0704	-0.000030
310.2822	0.001975
310.4940	-0.000199
310.7058	-0.000811
310.9176	-0.000262
311.1295	0.000645
311.3413	0.001004
311.5532	-0.000030
311.7651	0.001257
311.9770	0.000371
312.1889	0.000308
312.4008	0.001954
312.6127	0.001722
312.8247	0.000814
313.0366	0.000856
313.2486	0.000603
313.4606	0.000456
313.6726	0.001173
313.8846	0.001658
314.0967	-0.000051
314.3087	0.000139
314.5208	0.001300
314.7328	0.000603
314.9449	0.000603
315.1570	0.001806
315.3692	0.000012
315.5813	0.000962
315.7934	0.000751
316.0056	0.000540
316.2177	0.000624
316.4299	0.000983
316.6421	0.000202
316.8543	0.000899
317.0666	0.000181
317.2788	0.001300
317.4911	-0.000241
317.7033	0.000899
317.9156	0.000266
318.1279	0.001384
318.3402	0.000582
318.5525	0.000223
318.7649	0.001110
318.9772	0.001236
319.1896	0.001173
319.4019	0.002165
319.6143	-0.000030
319.8267	0.001532
320.0392	0.000033
320.2516	0.001722
320.4640	0.000498
320.6765	0.000582
320.8890	-0.000811
321.1014	0.001869
321.3139	-0.000452
321.5265	0.001975
321.7390	0.001279
321.9515	0.001680
322.1641	0.001553
322.3766	0.001490
322.5892	-0.000241
322.8018	0.000856
323.0144	0.001236
323.2270	0.002292
323.4397	0.000688
323.6523	0.000667
323.8650	0.000392
324.0777	0.001152
324.2904	0.000772
324.5031	0.002186
324.7158	0.000899
324.9285	0.001975
325.1412	0.001384
325.3540	0.001447
325.5668	-0.000178
325.7796	0.001257
325.9924	0.001912
326.2052	0.000920
326.4180	0.001701
326.6308	0.002545
326.8437	0.002482
327.0566	0.001637
327.2694	0.000941
327.4823	0.001996
327.6952	0.001363
327.9082	0.002460
328.1211	0.002460
328.3340	0.002566
328.5470	0.000624
328.7600	0.002482
328.9730	0.001511
329.1860	0.002249
329.3990	0.000097
329.6120	0.001131
329.8251	0.002102
330.0381	0.001173
330.2512	0.001342
330.4643	0.001574
330.6774	0.000456
330.8905	0.000962
331.1036	0.002270
331.3167	0.002608
331.5299	0.000055
331.7431	0.001363
331.9562	0.001279
332.1694	0.002228
332.3826	0.000434
332.5959	0.002883
332.8091	0.002081
333.0223	0.002081
333.2356	0.001300
333.4489	0.002059
333.6622	0.001363
333.8755	0.000667
334.0888	0.001827
334.3021	0.001342
334.5154	0.002165
334.7288	0.002482
334.9422	0.002967
335.1555	0.000835
335.3689	0.001553
335.5823	0.001933
335.7958	0.001743
336.0092	0.002186
336.2227	0.002081
336.4361	0.002165
336.6496	0.002102
336.8631	0.002460
337.0766	0.000920
337.2901	0.002228
337.5036	0.003072
337.7172	0.004972
337.9307	0.002249
338.1443	0.002038
338.3579	0.002249
338.5715	0.002186
338.7851	0.002397
338.9987	0.002081
339.2124	0.001806
339.4260	0.002292
339.6397	0.001194
339.8533	0.002376
340.0670	0.002313
340.2807	0.002566
340.4945	0.001236
340.7082	0.002313
340.9219	0.002081
341.1357	0.003579
341.3495	0.002081
341.5633	0.002503
341.7771	0.002270
341.9909	0.002313
342.2047	0.002334
342.4185	0.002397
342.6324	0.002650
342.8463	0.004212
343.0601	0.002059
343.2740	0.002798
343.4879	0.002123
343.7019	0.002249
343.9158	0.002608
344.1297	0.002545
344.3437	0.004085
344.5577	0.001996
344.7717	0.002524
344.9857	0.002988
345.1997	0.003368
345.4137	0.003368
345.6277	0.002608
345.8418	0.003431
346.0559	0.002904
346.2699	0.003389
346.4840	0.002693
346.6981	0.003853
346.9123	0.004402
347.1264	0.004085
347.3406	0.001490
347.5547	0.002629
347.7689	0.002228
347.9831	0.001616
348.1973	0.003178
348.4115	0.004824
348.6257	0.004107
348.8400	0.001912
349.0542	0.004191
349.2685	0.003326
349.4828	0.003663
349.6971	0.004444
349.9114	0.004866
350.1257	0.003980
350.3400	0.004550
350.5544	0.004423
350.7687	0.005098
350.9831	0.004001
351.1975	0.004064
351.4119	0.005056
351.6263	0.003980
351.8407	0.004212
352.0552	0.004444
352.2696	0.003706
352.4841	0.003262
352.6986	0.005014
352.9131	0.003917
353.1276	0.004107
353.3421	0.002840
353.5566	0.003537
353.7712	0.004740
353.9858	0.005943
354.2003	0.004803
354.4149	0.005943
354.6295	0.003874
354.8441	0.004191
355.0588	0.003706
355.2734	0.005521
355.4881	0.005858
355.7027	0.004972
355.9174	0.004972
356.1321	0.005225
356.3468	0.004465
356.5615	0.005415
356.7763	0.004508
356.9910	0.005732
357.2058	0.003980
357.4206	0.005056
357.6353	0.003853
357.8501	0.005521
358.0650	0.005985
358.2798	0.005689
358.4946	0.004191
358.7095	0.005816
358.9243	0.004107
359.1392	0.005246
359.3541	0.005478
359.5690	0.007040
359.7839	0.004423
359.9989	0.006111
360.2138	0.004613
360.4288	0.004697
360.6438	0.005457
360.8587	0.006449
361.0737	0.005626
361.2888	0.007146
361.5038	0.003558
361.7188	0.006407
361.9339	0.005985
362.1489	0.004634
362.3640	0.004887
362.5791	0.005985
362.7942	0.006681
363.0093	0.004233
363.2245	0.005795
363.4396	0.006998
363.6548	0.005584
363.8699	0.005246
364.0851	0.006133
364.3003	0.007188
364.5155	0.006090
364.7308	0.007019
364.9460	0.005394
365.1612	0.008074
365.3765	0.005879
365.5918	0.006787
365.8071	0.005795
366.0224	0.006745
366.2377	0.006048
366.4530	0.007884
366.6684	0.006534
366.8837	0.007462
367.0991	0.007969
367.3145	0.007272
367.5299	0.007230
367.7453	0.008032
367.9607	0.007146
368.1761	0.008011
368.3916	0.006386
368.6070	0.008074
368.8225	0.007969
369.0380	0.008053
369.2535	0.008264
369.4690	0.009509
369.6845	0.007948
369.9001	0.008982
370.1156	0.008707
370.3312	0.009931
370.5468	0.007019
370.7624	0.008939
370.9780	0.006470
371.1936	0.009467
371.4092	0.008918
371.6249	0.009214
371.8405	0.008391
372.0562	0.008855
372.2719	0.009172
372.4876	0.010332
372.7033	0.008370
372.9190	0.009108
373.1348	0.008939
373.3505	0.010480
373.5663	0.009108
373.7820	0.009425
373.9978	0.008686
374.2136	0.011008
374.4294	0.007652
374.6453	0.012253
374.8611	0.010965
375.0770	0.011113
375.2928	0.013604
375.5087	0.012696
375.7246	0.011704
375.9405	0.014089
376.1564	0.010965
376.3724	0.013667
376.5883	0.014173
376.8043	0.011873
377.0203	0.012401
377.2362	0.012168
377.4522	0.013646
377.6682	0.014363
377.8843	0.012126
378.1003	0.014321
378.3164	0.014469
378.5324	0.015693
378.7485	0.015018
378.9646	0.014722
379.1807	0.015925
379.3968	0.015798
379.6129	0.015039
379.8291	0.016579
380.0452	0.015271
380.2614	0.015841
380.4776	0.014785
380.6938	0.016917
380.9100	0.014828
381.1262	0.018204
381.3424	0.015545
381.5587	0.016748
381.7749	0.017128
381.9912	0.016453
382.2075	0.016199
382.4238	0.019597
382.6401	0.018078
382.8564	0.017677
383.0728	0.017656
383.2891	0.019091
383.5055	0.017318
383.7219	0.016621
383.9382	0.020272
384.1546	0.018880
384.3711	0.018500
384.5875	0.019682
384.8039	0.018183
385.0204	0.019386
385.2368	0.017381
385.4533	0.018669
385.6698	0.018880
385.8863	0.020251
386.1028	0.018436
386.3194	0.019112
386.5359	0.019217
386.7525	0.020969
386.9690	0.020061
387.1856	0.022678
387.4022	0.021286
387.6188	0.022847
387.8355	0.023206
388.0521	0.022721
388.2687	0.021940
388.4854	0.023290
388.7021	0.021074
388.9188	0.021940
389.1355	0.022995
389.3522	0.023501
389.5689	0.022066
389.7856	0.022488
390.0024	0.022784
390.2192	0.024472
390.4359	0.022467
390.6527	0.021729
390.8695	0.025696
391.0863	0.026562
391.3032	0.024409
391.5200	0.024029
391.7369	0.023881
391.9537	0.025422
392.1706	0.025401
392.3875	0.026899
392.6044	0.025823
392.8213	0.027849
393.0383	0.028503
393.2552	0.027997
393.4722	0.027849
393.6891	0.028123
393.9061	0.026920
394.1231	0.026920
394.3401	0.025865
394.5572	0.027216
394.7742	0.029115
394.9912	0.029959
395.2083	0.028883
395.4254	0.028672
395.6425	0.028377
395.8596	0.031352
396.0767	0.025886
396.2938	0.027511
396.5109	0.026435
396.7281	0.029263
396.9453	0.028018
397.1624	0.031732
397.3796	0.030213
397.5968	0.031458
397.8140	0.031563
398.0313	0.031563
398.2485	0.032830
398.4658	0.035995
398.6830	0.033927
398.9003	0.032872
399.1176	0.034813
399.3349	0.034265
399.5522	0.032576
399.7696	0.037156
399.9869	0.033526
400.2043	0.032175
400.4216	0.031795
400.6390	0.031352
400.8564	0.029769
401.0738	0.033632
401.2912	0.033821
401.5087	0.032935
401.7261	0.032070
401.9436	0.032534
402.1610	0.034412
402.3785	0.035447
402.5960	0.032407
402.8135	0.034201
403.0310	0.032661
403.2486	0.030972
403.4661	0.034307
403.6837	0.033526
403.9013	0.035383
404.1189	0.032028
404.3365	0.035552
404.5541	0.034286
404.7717	0.033104
404.9893	0.033357
405.2070	0.037135
405.4246	0.035151
405.6423	0.036101
405.8600	0.036523
406.0777	0.034623
406.2954	0.036122
406.5131	0.035193
406.7309	0.033610
406.9486	0.034856
407.1664	0.034328
407.3842	0.034834
407.6020	0.032407
407.8198	0.031943
408.0376	0.032745
408.2554	0.033357
408.4733	0.031542
408.6911	0.034391
408.9090	0.034455
409.1269	0.034476
409.3448	0.036945
409.5627	0.034033
409.7806	0.035425
409.9985	0.034581
410.2165	0.032998
410.4344	0.033610
410.6524	0.035320
410.8704	0.034159
411.0884	0.032154
411.3064	0.035088
411.5244	0.034033
411.7424	0.034138
411.9605	0.035447
412.1785	0.033990
412.3966	0.036101
412.6147	0.037451
412.8328	0.035636
413.0509	0.035130
413.2690	0.035658
413.4871	0.033716
413.7053	0.036227
413.9234	0.036945
414.1416	0.035109
414.3598	0.036713
414.5780	0.033864
414.7962	0.036671
415.0144	0.034412
415.2326	0.038085
415.4509	0.037072
415.6692	0.034455
415.8874	0.035911
416.1057	0.036565
416.3240	0.036692
416.5423	0.036354
416.7606	0.035151
416.9790	0.037874
417.1973	0.035299
417.4157	0.035995
417.6341	0.034539
417.8524	0.034750
418.0708	0.034434
418.2893	0.034455
418.5077	0.035721
418.7261	0.037536
418.9446	0.036206
419.1630	0.037261
419.3815	0.037874
419.6000	0.038507
419.8185	0.036291
420.0370	0.037156
420.2555	0.038106
420.4741	0.039667
420.6926	0.041989
420.9112	0.039541
421.1298	0.042284
421.3483	0.042622
421.5669	0.044901
421.7856	0.044099
422.0042	0.044374
422.2228	0.045091
422.4415	0.042073
422.6601	0.045640
422.8788	0.043698
423.0975	0.042453
423.3162	0.042538
423.5349	0.043508
423.7536	0.040448
423.9724	0.041102
424.1911	0.039266
424.4099	0.042327
424.6287	0.041715
424.8475	0.040680
425.0663	0.041503
425.2851	0.041208
425.5039	0.041271
425.7228	0.039013
425.9416	0.040490
426.1605	0.039604
426.3793	0.036628
426.5982	0.038591
426.8171	0.038232
427.0361	0.037219
427.2550	0.042538
427.4739	0.041630
427.6929	0.041904
427.9118	0.040617
428.1308	0.040237
428.3498	0.040490
428.5688	0.039477
428.7878	0.039731
429.0068	0.039414
429.2259	0.040216
429.4449	0.042643
429.6640	0.044775
429.8831	0.047835
