# Wavelength (nm)	Intensity (a.u.)
197.7802	0.000725
197.9842	-0.000584
198.1882	0.001274
198.3922	0.000028
198.5963	0.000155
198.8003	0.000007
199.0044	0.001464
199.2085	0.001189
199.4126	0.000070
199.6168	0.001506
199.8209	0.000683
200.0251	-0.001471
200.2292	0.001970
200.4334	-0.000035
200.6376	0.000028
200.8418	-0.000162
201.0461	0.000851
201.2503	-0.001323
201.4546	0.000113
201.6589	0.002055
201.8631	0.000535
202.0674	0.000598
202.2718	0.000070
202.4761	0.000450
202.6805	0.000577
202.8848	-0.000162
203.0892	0.000978
203.2936	-0.000626
203.4980	0.001274
203.7024	-0.000267
203.9069	0.001063
204.1113	0.000345
204.3158	0.000556
204.5203	0.000028
204.7248	0.001633
204.9293	-0.000732
205.1338	0.000218
205.3384	0.001168
205.5430	0.000450
205.7475	0.001105
205.9521	0.000809
206.1567	-0.000373
206.3614	-0.000035
206.5660	-0.001661
206.7706	0.002245
206.9753	0.001548
207.1800	0.000429
207.3847	-0.000077
207.5894	0.000345
207.7941	-0.000436
207.9989	0.000239
208.2036	-0.000099
208.4084	0.000134
208.6132	-0.000310
208.8180	0.000830
209.0228	-0.000310
209.2276	0.000450
209.4325	0.000598
209.6373	-0.000479
209.8422	0.000556
210.0471	0.000725
210.2520	-0.000795
210.4569	0.000028
210.6618	0.000556
210.8668	-0.000141
211.0718	-0.001027
211.2767	-0.000289
211.4817	0.000830
211.6867	0.000091
211.8918	-0.000225
212.0968	0.001400
212.3018	0.000661
212.5069	0.000450
212.7120	0.000387
212.9171	0.001358
213.1222	-0.000289
213.3273	0.001928
213.5325	-0.001027
213.7376	-0.000225
213.9428	-0.000415
214.1480	0.000999
214.3532	0.001041
214.5584	0.000408
214.7636	-0.000267
214.9689	-0.000415
215.1741	-0.000162
215.3794	0.000556
215.5847	0.000873
215.7900	0.000345
215.9953	0.000598
216.2007	0.000471
216.4060	-0.000183
216.6114	0.000028
216.8168	0.000218
217.0222	0.000239
217.2276	0.000598
217.4330	0.000704
217.6384	0.000070
217.8439	0.000936
218.0494	0.000661
218.2548	0.001168
218.4603	0.001358
218.6659	0.001780
218.8714	-0.000204
219.0769	0.000788
219.2825	0.000281
219.4881	0.000915
219.6936	-0.000373
219.8992	-0.000732
220.1049	0.000408
220.3105	0.001844
220.5161	0.000091
220.7218	0.001084
220.9275	0.001823
221.1332	0.000936
221.3389	-0.000943
221.5446	0.000809
221.7503	-0.001365
221.9561	0.000408
222.1618	0.000556
222.3676	0.000007
222.5734	0.000851
222.7792	0.001569
222.9850	-0.000415
223.1909	-0.000457
223.3967	-0.000922
223.6026	0.000683
223.8085	-0.000964
224.0144	0.000873
224.2203	-0.000457
224.4262	0.000577
224.6322	-0.000880
224.8381	0.001421
225.0441	0.000091
225.2501	0.000450
225.4561	0.000218
225.6621	0.001253
225.8681	-0.000120
226.0742	-0.001133
226.2802	0.000598
226.4863	-0.000690
226.6924	0.001590
226.8985	0.000851
227.1046	0.000134
227.3107	-0.000035
227.5169	0.000661
227.7230	-0.000056
227.9292	-0.001091
228.1354	0.000830
228.3416	-0.000162
228.5478	0.000113
228.7541	0.001611
228.9603	0.000303
229.1666	0.000556
229.3729	0.000514
229.5791	-0.001112
229.7855	0.000155
229.9918	-0.000521
230.1981	0.001253
230.4045	0.000767
230.6108	0.000999
230.8172	-0.000331
231.0236	0.001443
231.2300	0.000809
231.4364	0.002160
231.6429	-0.000669
231.8493	-0.000183
232.0558	-0.000162
232.2623	0.000366
232.4688	-0.000056
232.6753	0.003279
232.8818	0.001020
233.0884	0.000387
233.2949	0.000661
233.5015	0.001464
233.7081	0.000619
233.9147	0.000429
234.1213	0.000239
234.3279	-0.000310
234.5346	-0.000880
234.7413	0.000746
234.9479	-0.000436
235.1546	0.001105
235.3613	0.000028
235.5680	0.000577
235.7748	0.000999
235.9815	-0.000584
236.1883	-0.000183
236.3951	0.001168
236.6018	0.000239
236.8087	0.001084
237.0155	-0.000014
237.2223	-0.000120
237.4292	0.000239
237.6360	0.001506
237.8429	0.001506
238.0498	0.000049
238.2567	0.000471
238.4636	0.000661
238.6706	0.001337
238.8775	0.000936
239.0845	0.000281
239.2915	0.001063
239.4985	-0.000162
239.7055	0.000894
239.9125	0.000661
240.1195	0.000197
240.3266	-0.000901
240.5337	0.000028
240.7407	-0.000837
240.9478	0.000049
241.1549	0.001084
241.3621	0.000999
241.5692	0.000429
241.7764	0.001126
241.9835	0.001464
242.1907	-0.000035
242.3979	0.000091
242.6051	0.000218
242.8124	-0.000289
243.0196	0.001168
243.2269	-0.000204
243.4341	0.000556
243.6414	0.000155
243.8487	0.000493
244.0560	0.000113
244.2634	-0.000035
244.4707	-0.001006
244.6781	0.000535
244.8854	0.000535
245.0928	0.000387
245.3002	-0.000837
245.5076	0.000619
245.7151	0.000725
245.9225	0.000746
246.1300	-0.000183
246.3375	0.001696
246.5449	0.000007
246.7524	0.000070
246.9600	0.000619
247.1675	0.000493
247.3750	-0.000246
247.5826	0.002203
247.7902	-0.000774
247.9978	-0.000394
248.2054	0.001063
248.4130	0.001316
248.6206	0.000788
248.8283	0.001189
249.0359	-0.000183
249.2436	0.000197
249.4513	0.000514
249.6590	0.000830
249.8667	-0.000099
250.0745	0.000788
250.2822	0.000788
250.4900	0.001041
250.6978	0.000366
250.9056	0.000556
251.1134	-0.000267
251.3212	-0.000120
251.5290	0.001295
251.7369	0.000725
251.9447	0.000746
252.1526	0.001823
252.3605	0.000260
252.5684	0.001928
252.7763	-0.001175
252.9843	0.000070
253.1922	0.000493
253.4002	0.002013
253.6082	-0.000647
253.8162	0.000345
254.0242	-0.001534
254.2322	0.002181
254.4402	0.001633
254.6483	0.000978
254.8564	-0.000183
255.0644	-0.000647
255.2725	-0.000204
255.4806	0.001717
255.6888	-0.000521
255.8969	0.000493
256.1051	0.001295
256.3132	0.000091
256.5214	0.000851
256.7296	0.000535
256.9378	0.001020
257.1460	0.000260
257.3543	-0.000141
257.5625	0.000408
257.7708	-0.000457
257.9791	0.000197
258.1874	0.000556
258.3957	0.000218
258.6040	0.000345
258.8124	0.001865
259.0207	-0.000943
259.2291	0.002203
259.4375	0.000851
259.6459	-0.001091
259.8543	0.000366
260.0627	0.000113
260.2711	0.001844
260.4796	0.001041
260.6881	-0.000711
260.8965	0.000704
261.1050	-0.001112
261.3135	0.001611
261.5221	0.001527
261.7306	0.001063
261.9392	-0.000943
262.1477	0.002034
262.3563	-0.001513
262.5649	0.001084
262.7735	0.000999
262.9822	0.000155
263.1908	0.000007
263.3995	0.000408
263.6081	0.000577
263.8168	0.000450
264.0255	0.001210
264.2342	0.000788
264.4429	-0.000352
264.6517	0.000091
264.8604	-0.000162
265.0692	0.000324
265.2780	0.001020
265.4868	0.000809
265.6956	0.000514
265.9044	-0.000162
266.1133	-0.000732
266.3221	0.000197
266.5310	0.000640
266.7399	-0.000014
266.9488	0.001506
267.1577	0.000450
267.3666	0.000471
267.5755	0.001464
267.7845	0.000239
267.9935	0.000007
268.2024	-0.000584
268.4114	-0.000225
268.6205	0.000809
268.8295	0.000683
269.0385	-0.000246
269.2476	0.000915
269.4566	-0.000014
269.6657	0.001295
269.8748	0.000197
270.0839	0.000260
270.2931	-0.000289
270.5022	0.000704
270.7114	-0.001323
270.9205	0.000788
271.1297	-0.000289
271.3389	-0.000563
271.5481	0.000577
271.7573	0.000577
271.9666	0.000028
272.1758	0.000155
272.3851	0.001738
272.5944	-0.000521
272.8037	-0.000310
273.0130	0.001548
273.2223	0.000471
273.4316	0.000936
273.6410	-0.000373
273.8504	0.000577
274.0597	0.000683
274.2691	-0.000373
274.4785	-0.001386
274.6880	-0.000141
274.8974	0.001063
275.1069	-0.000014
275.3163	-0.000816
275.5258	0.000619
275.7353	-0.000035
275.9448	0.000809
276.1543	0.000556
276.3639	0.000176
276.5734	0.000619
276.7830	0.000281
276.9926	0.000704
277.2022	0.001358
277.4118	0.000619
277.6214	-0.000056
277.8310	0.001506
278.0407	0.000683
278.2503	0.000408
278.4600	0.001210
278.6697	0.000577
278.8794	0.000049
279.0891	0.001126
279.2989	0.000661
279.5086	-0.000859
279.7184	0.001548
279.9281	0.000197
280.1379	0.000493
280.3477	-0.000373
280.5576	-0.000014
280.7674	0.000661
280.9772	-0.000352
281.1871	0.000155
281.3970	0.001780
281.6069	0.000725
281.8168	0.001084
282.0267	0.000704
282.2366	0.000598
282.4466	0.000408
282.6565	0.001569
282.8665	-0.002041
283.0765	0.001485
283.2865	-0.000859
283.4965	-0.000837
283.7065	-0.000563
283.9166	0.000176
284.1266	-0.000267
284.3367	0.000661
284.5468	-0.000943
284.7569	0.000704
284.9670	-0.000647
285.1771	0.000725
285.3873	0.000809
285.5974	0.000113
285.8076	-0.000415
286.0178	0.000894
286.2280	0.000556
286.4382	0.000176
286.6484	-0.000563
286.8587	0.000725
287.0689	0.001084
287.2792	0.000471
287.4895	0.000450
287.6998	0.000471
287.9101	0.000366
288.1204	0.001168
288.3308	-0.000479
288.5411	-0.000204
288.7515	-0.000521
288.9619	0.001443
289.1723	0.000260
289.3827	0.000113
289.5931	-0.000373
289.8035	0.001084
290.0140	0.000218
290.2245	0.000197
290.4349	-0.000099
290.6454	0.000535
290.8559	0.000429
291.0665	0.000535
291.2770	0.000281
291.4875	0.000303
291.6981	0.001823
291.9087	0.000514
292.1193	0.000408
292.3299	0.000260
292.5405	0.000894
292.7511	0.001231
292.9618	-0.000225
293.1724	-0.000246
293.3831	0.001316
293.5938	0.000683
293.8045	0.001295
294.0152	0.000155
294.2260	-0.001049
294.4367	0.000577
294.6475	0.000408
294.8582	0.001189
295.0690	0.000725
295.2798	0.000598
295.4906	0.001738
295.7015	-0.000141
295.9123	0.001464
296.1232	0.000999
296.3340	0.000408
296.5449	0.000134
296.7558	0.000028
296.9667	-0.000077
297.1777	0.001590
297.3886	0.001126
297.5995	0.000239
297.8105	0.000471
298.0215	0.000471
298.2325	0.000640
298.4435	-0.000753
298.6545	0.001168
298.8656	-0.000711
299.0766	0.000936
299.2877	0.000324
299.4988	-0.000225
299.7099	0.001020
299.9210	0.001084
300.1321	-0.000267
300.3432	0.000936
300.5544	0.000704
300.7655	0.001041
300.9767	-0.000225
301.1879	0.000514
301.3991	-0.000120
301.6103	-0.000225
301.8215	0.000260
302.0328	0.002561
302.2441	-0.000795
302.4553	0.000387
302.6666	0.001654
302.8779	0.000830
303.0892	0.000387
303.3006	0.000239
303.5119	0.000471
303.7233	0.000577
303.9346	0.001823
304.1460	0.000661
304.3574	-0.000056
304.5688	0.001823
304.7803	0.000661
304.9917	-0.000014
305.2031	-0.000352
305.4146	0.000070
305.6261	-0.000267
305.8376	0.000091
306.0491	0.000028
306.2606	0.000155
306.4722	-0.000310
306.6837	0.000704
306.8953	-0.000141
307.1069	0.000767
307.3184	0.000429
307.5301	0.000661
307.7417	0.000260
307.9533	0.001105
308.1650	0.000725
308.3766	0.000640
308.5883	-0.000014
308.8000	0.001801
309.0117	-0.000035
309.2234	0.001823
309.4351	-0.000837
309.6469	0.001738
309.8586	0.000197
310.0704	0.001949
310.2822	0.001168
310.4940	0.001421
310.7058	0.000999
310.9176	0.000873
311.1295	0.000260
311.3413	0.000281
311.5532	0.000767
311.7651	0.001675
311.9770	0.000683
312.1889	0.000999
312.4008	-0.000289
312.6127	0.000556
312.8247	-0.000753
313.0366	0.001738
313.2486	0.000324
313.4606	0.001274
313.6726	-0.000816
313.8846	0.000830
314.0967	0.001464
314.3087	0.000070
314.5208	-0.000457
314.7328	0.000070
314.9449	0.000978
315.1570	-0.000246
315.3692	-0.000901
315.5813	0.000704
315.7934	-0.000964
316.0056	-0.000035
316.2177	0.000915
316.4299	0.001231
316.6421	-0.000626
316.8543	-0.000331
317.0666	0.000619
317.2788	0.000830
317.4911	-0.000014
317.7033	0.001041
317.9156	0.000577
318.1279	-0.000373
318.3402	0.000978
318.5525	-0.000985
318.7649	0.000218
318.9772	0.000598
319.1896	-0.000415
319.4019	0.002329
319.6143	0.001886
319.8267	0.000514
320.0392	0.000514
320.2516	0.000767
320.4640	-0.000056
320.6765	-0.000331
320.8890	0.000155
321.1014	0.000028
321.3139	0.000725
321.5265	0.000767
321.7390	0.000049
321.9515	0.000915
322.1641	0.000746
322.3766	-0.000014
322.5892	0.000598
322.8018	0.000218
323.0144	0.000345
323.2270	0.000577
323.4397	0.000873
323.6523	0.000851
323.8650	0.000028
324.0777	0.001020
324.2904	0.002266
324.5031	0.001506
324.7158	0.000345
324.9285	0.000535
325.1412	-0.000056
325.3540	0.000767
325.5668	0.000577
325.7796	0.000471
325.9924	-0.001386
326.2052	0.001527
326.4180	0.000345
326.6308	-0.000521
326.8437	-0.000816
327.0566	0.000915
327.2694	0.001316
327.4823	0.001654
327.6952	-0.000605
327.9082	0.000619
328.1211	-0.000225
328.3340	0.001443
328.5470	-0.000647
328.7600	0.001400
328.9730	0.000661
329.1860	0.000007
329.3990	-0.000943
329.6120	0.001253
329.8251	0.000091
330.0381	-0.000964
330.2512	-0.000099
330.4643	0.001337
330.6774	-0.000204
330.8905	0.000851
331.1036	0.000830
331.3167	-0.000457
331.5299	0.000577
331.7431	0.000683
331.9562	-0.000310
332.1694	0.000324
332.3826	0.001231
332.5959	0.001126
332.8091	0.000134
333.0223	-0.000436
333.2356	-0.000246
333.4489	0.001717
333.6622	-0.000626
333.8755	0.001633
334.0888	0.000007
334.3021	-0.000183
334.5154	-0.000183
334.7288	0.000239
334.9422	-0.001070
335.1555	0.001168
335.3689	0.000514
335.5823	-0.000267
335.7958	0.000260
336.0092	0.001464
336.2227	0.000450
336.4361	0.000725
336.6496	0.000746
336.8631	0.000260
337.0766	-0.000204
337.2901	0.000619
337.5036	0.000936
337.7172	-0.000457
337.9307	0.000957
338.1443	0.001041
338.3579	-0.000605
338.5715	0.001506
338.7851	0.000324
338.9987	-0.000605
339.2124	-0.000521
339.4260	0.000303
339.6397	0.000366
339.8533	0.000197
340.0670	0.001443
340.2807	0.000197
340.4945	0.001189
340.7082	0.000345
340.9219	0.000514
341.1357	0.001443
341.3495	0.000429
341.5633	0.001569
341.7771	0.000260
341.9909	0.000788
342.2047	0.002160
342.4185	0.000281
342.6324	0.000514
342.8463	0.001421
343.0601	0.000049
343.2740	-0.000985
343.4879	-0.000521
343.7019	0.001611
343.9158	-0.000436
344.1297	0.001421
344.3437	0.000028
344.5577	0.000281
344.7717	-0.001175
344.9857	0.000746
345.1997	0.000535
345.4137	0.000007
345.6277	-0.000500
345.8418	0.001886
346.0559	0.000957
346.2699	0.000007
346.4840	0.001041
346.6981	0.001084
346.9123	0.000260
347.1264	0.001421
347.3406	-0.000901
347.5547	0.001337
347.7689	-0.000415
347.9831	0.000873
348.1973	0.001379
348.4115	0.001548
348.6257	0.000704
348.8400	0.000830
349.0542	0.000936
349.2685	0.000788
349.4828	0.000176
349.6971	0.000598
349.9114	0.000514
350.1257	0.001527
350.3400	0.001063
350.5544	0.002456
350.7687	0.000366
350.9831	0.000851
351.1975	0.000091
351.4119	0.000471
351.6263	0.000999
351.8407	-0.000056
352.0552	0.000049
352.2696	0.000091
352.4841	-0.000162
352.6986	0.001337
352.9131	-0.000035
353.1276	0.000915
353.3421	-0.000521
353.5566	0.001126
353.7712	0.000514
353.9858	0.000556
354.2003	0.000683
354.4149	0.000324
354.6295	0.000324
354.8441	0.001717
355.0588	-0.000267
355.2734	0.000683
355.4881	-0.000626
355.7027	0.000408
355.9174	-0.000225
356.1321	0.001569
356.3468	0.000324
356.5615	0.000725
356.7763	-0.000373
356.9910	0.000746
357.2058	0.000556
357.4206	0.000070
357.6353	0.000134
357.8501	0.001654
358.0650	0.000683
358.2798	0.002561
358.4946	0.000239
358.7095	-0.000711
358.9243	0.001400
359.1392	0.001759
359.3541	-0.000141
359.5690	0.000070
359.7839	-0.000436
359.9989	0.000978
360.2138	0.000471
360.4288	-0.000500
360.6438	0.000070
360.8587	0.002034
361.0737	0.000366
361.2888	-0.000331
361.5038	0.000788
361.7188	-0.000521
361.9339	0.000535
362.1489	0.002181
362.3640	0.000936
362.5791	0.000640
362.7942	0.000007
363.0093	-0.000141
363.2245	-0.000542
363.4396	0.002055
363.6548	0.000767
363.8699	0.001464
364.0851	-0.000246
364.3003	0.000746
364.5155	0.000155
364.7308	-0.000014
364.9460	0.001274
365.1612	0.000894
365.3765	0.002181
365.5918	0.000535
365.8071	-0.000352
366.0224	-0.000183
366.2377	-0.000669
366.4530	0.000915
366.6684	0.000155
366.8837	0.000767
367.0991	-0.000732
367.3145	0.001611
367.5299	-0.000415
367.7453	0.000429
367.9607	-0.001049
368.1761	0.001358
368.3916	0.000113
368.6070	0.000894
368.8225	0.000493
369.0380	-0.000267
369.2535	0.000239
369.4690	0.001421
369.6845	-0.000542
369.9001	0.000873
370.1156	0.001126
370.3312	0.000978
370.5468	0.000260
370.7624	0.000978
370.9780	-0.000077
371.1936	0.000007
371.4092	-0.000141
371.6249	0.000514
371.8405	-0.000246
372.0562	0.000978
372.2719	0.002203
372.4876	0.001316
372.7033	0.001041
372.9190	0.001379
373.1348	0.000683
373.3505	-0.000035
373.5663	-0.000225
373.7820	-0.000246
373.9978	-0.000267
374.2136	0.000619
374.4294	-0.000901
374.6453	-0.001027
374.8611	0.000619
375.0770	0.001421
375.2928	0.000873
375.5087	0.001759
375.7246	0.000239
375.9405	0.001020
376.1564	-0.001154
376.3724	-0.000162
376.5883	-0.000711
376.8043	0.000598
377.0203	-0.000035
377.2362	-0.000457
377.4522	-0.000099
377.6682	0.001633
377.8843	0.001105
378.1003	0.000957
378.3164	0.000577
378.5324	0.001590
378.7485	0.000619
378.9646	0.001189
379.1807	0.001464
379.3968	0.001168
379.6129	0.001464
379.8291	0.001717
380.0452	0.000070
380.2614	0.000725
380.4776	0.000809
380.6938	0.000408
380.9100	0.000007
381.1262	0.000830
381.3424	-0.000859
381.5587	0.000197
381.7749	0.000049
381.9912	0.000366
382.2075	-0.000120
382.4238	0.002350
382.6401	-0.000816
382.8564	0.001147
383.0728	0.000303
383.2891	0.001189
383.5055	0.000873
383.7219	0.000894
383.9382	0.001506
384.1546	-0.000267
384.3711	-0.000563
384.5875	0.000049
384.8039	-0.000373
385.0204	0.001844
385.2368	0.001527
385.4533	0.001147
385.6698	0.000070
385.8863	0.000767
386.1028	0.001590
386.3194	0.001231
386.5359	-0.000479
386.7525	0.001063
386.9690	0.002329
387.1856	0.000408
387.4022	0.000429
387.6188	0.000746
387.8355	0.001485
388.0521	0.000366
388.2687	-0.000141
388.4854	0.001274
388.7021	0.001316
388.9188	0.000725
389.1355	0.001400
389.3522	0.000514
389.5689	0.000366
389.7856	0.002350
390.0024	0.000345
390.2192	0.002203
390.4359	0.002604
390.6527	0.001168
390.8695	0.000345
391.0863	0.002308
391.3032	0.000915
391.5200	0.001611
391.7369	0.001844
391.9537	0.001865
392.1706	0.002625
392.3875	0.002519
392.6044	0.002540
392.8213	0.002034
393.0383	0.001738
393.2552	0.002308
393.4722	0.001844
393.6891	0.003321
393.9061	0.002604
394.1231	0.002646
394.3401	0.002730
394.5572	0.003343
394.7742	0.002013
394.9912	0.002224
395.2083	0.002519
395.4254	0.003786
395.6425	0.002371
395.8596	0.003490
396.0767	0.002709
396.2938	0.002540
396.5109	0.002709
396.7281	0.003870
396.9453	0.002815
397.1624	0.005496
397.3796	0.003554
397.5968	0.003638
397.8140	0.002794
398.0313	0.004905
398.2485	0.004715
398.4658	0.005053
398.6830	0.004377
398.9003	0.005285
399.1176	0.004419
399.3349	0.005665
399.5522	0.003976
399.7696	0.005221
399.9869	0.004778
400.2043	0.005623
400.4216	0.004103
400.6390	0.006256
400.8564	0.005686
401.0738	0.004968
401.2912	0.006256
401.5087	0.006594
401.7261	0.007333
401.9436	0.006150
402.1610	0.006615
402.3785	0.009000
402.5960	0.006235
402.8135	0.005897
403.0310	0.007058
403.2486	0.006910
403.4661	0.005939
403.6837	0.007037
403.9013	0.007839
404.1189	0.008494
404.3365	0.008536
404.5541	0.007079
404.7717	0.008114
404.9893	0.009127
405.2070	0.007607
405.4246	0.008789
405.6423	0.007839
405.8600	0.009106
406.0777	0.009444
406.2954	0.010035
406.5131	0.008810
406.7309	0.008810
406.9486	0.008768
407.1664	0.009507
407.3842	0.008261
407.6020	0.008789
407.8198	0.009444
408.0376	0.009444
408.2554	0.010837
408.4733	0.008916
408.6911	0.010922
408.9090	0.008219
409.1269	0.008430
409.3448	0.011154
409.5627	0.011006
409.7806	0.010162
409.9985	0.010964
410.2165	0.010183
410.4344	0.011660
410.6524	0.010605
410.8704	0.010647
411.0884	0.010542
411.3064	0.011829
411.5244	0.010309
411.7424	0.010415
411.9605	0.012547
412.1785	0.012167
412.3966	0.010879
412.6147	0.012906
412.8328	0.012800
413.0509	0.012209
413.2690	0.011238
413.4871	0.012906
413.7053	0.012167
413.9234	0.013117
414.1416	0.013096
414.3598	0.013539
414.5780	0.013286
414.7962	0.013687
415.0144	0.013012
415.2326	0.013265
415.4509	0.014067
415.6692	0.013307
415.8874	0.014320
416.1057	0.014975
416.3240	0.014046
416.5423	0.015144
416.7606	0.014067
416.9790	0.015186
417.1973	0.013518
417.4157	0.016643
417.6341	0.015862
417.8524	0.014764
418.0708	0.012906
418.2893	0.016643
418.5077	0.016284
418.7261	0.015439
418.9446	0.014257
419.1630	0.016284
419.3815	0.014679
419.6000	0.017002
419.8185	0.015482
420.0370	0.015355
420.2555	0.017550
420.4741	0.017170
420.6926	0.015798
420.9112	0.018120
421.1298	0.019640
421.3483	0.019197
421.5669	0.019472
421.7856	0.019788
422.0042	0.020738
422.2228	0.021097
422.4415	0.019767
422.6601	0.017909
422.8788	0.018986
423.0975	0.018944
423.3162	0.019282
423.5349	0.019725
423.7536	0.018099
423.9724	0.018733
424.1911	0.018458
424.4099	0.020168
424.6287	0.019070
424.8475	0.020210
425.0663	0.019472
425.2851	0.018690
425.5039	0.018015
425.7228	0.019619
425.9416	0.016643
426.1605	0.019704
426.3793	0.018775
426.5982	0.017297
426.8171	0.017550
427.0361	0.018353
427.2550	0.020084
427.4739	0.019028
427.6929	0.021287
427.9118	0.019387
428.1308	0.019493
428.3498	0.020590
428.5688	0.020274
428.7878	0.019155
429.0068	0.018986
429.2259	0.021266
