# Wavelength (nm)	Intensity (a.u.)
197.7802	0.000410
197.9842	-0.000604
198.1882	-0.000055
198.3922	-0.000012
198.5963	0.000135
198.8003	-0.000625
199.0044	0.000832
199.2085	-0.000076
199.4126	0.001255
199.6168	-0.000857
199.8209	0.000410
200.0251	-0.000772
200.2292	0.000874
200.4334	0.000473
200.6376	0.000093
200.8418	0.000980
201.0461	0.002268
201.2503	0.000410
201.4546	0.001086
201.6589	-0.000033
201.8631	0.000874
202.0674	0.000663
202.2718	0.000853
202.4761	-0.001152
202.6805	0.000832
202.8848	-0.000160
203.0892	0.000347
203.2936	0.000114
203.4980	0.001677
203.7024	-0.000160
203.9069	0.001550
204.1113	-0.000245
204.3158	-0.000055
204.5203	0.000030
204.7248	0.000283
204.9293	0.000304
205.1338	0.001613
205.3384	0.000009
205.5430	-0.000097
205.7475	0.000283
205.9521	-0.000287
206.1567	0.001402
206.3614	0.000959
206.5660	-0.000836
206.7706	-0.000815
206.9753	0.000135
207.1800	0.000220
207.3847	0.000431
207.5894	0.000727
207.7941	-0.000012
207.9989	0.000283
208.2036	-0.000033
208.4084	0.000727
208.6132	-0.000287
208.8180	0.000790
209.0228	-0.002588
209.2276	0.000790
209.4325	-0.000984
209.6373	-0.000456
209.8422	0.000642
210.0471	-0.000160
210.2520	-0.000118
210.4569	0.000727
210.6618	-0.000392
210.8668	0.000452
211.0718	-0.001427
211.2767	0.000558
211.4817	0.000790
211.6867	0.000283
211.8918	-0.000899
212.0968	0.001233
212.3018	-0.000308
212.5069	-0.000772
212.7120	-0.000815
212.9171	-0.000329
213.1222	-0.000097
213.3273	-0.000625
213.5325	0.000874
213.7376	0.001233
213.9428	-0.000245
214.1480	0.000473
214.3532	-0.000287
214.5584	0.001191
214.7636	0.000874
214.9689	0.001233
215.1741	0.000262
215.3794	0.000579
215.5847	0.000262
215.7900	0.000072
215.9953	0.000431
216.2007	0.000093
216.4060	0.000537
216.6114	-0.000519
216.8168	-0.000435
217.0222	-0.000498
217.2276	0.000220
217.4330	0.001064
217.6384	0.000938
217.8439	0.000368
218.0494	0.001001
218.2548	0.000917
218.4603	-0.000646
218.6659	0.000389
218.8714	0.000410
219.0769	0.000537
219.2825	0.000769
219.4881	0.000304
219.6936	-0.000012
219.8992	-0.000118
220.1049	-0.000160
220.3105	0.000579
220.5161	-0.000984
220.7218	0.000473
220.9275	0.001233
221.1332	0.000706
221.3389	-0.000540
221.5446	0.000896
221.7503	-0.001089
221.9561	-0.000667
222.1618	-0.000582
222.3676	-0.000202
222.5734	-0.000012
222.7792	0.000389
222.9850	-0.000519
223.1909	0.000748
223.3967	-0.001237
223.6026	0.001297
223.8085	0.000009
224.0144	0.000896
224.2203	-0.000751
224.4262	0.002184
224.6322	-0.001638
224.8381	0.001381
225.0441	-0.000477
225.2501	0.000431
225.4561	-0.000350
225.6621	0.000114
225.8681	-0.000076
226.0742	0.001001
226.2802	-0.000329
226.4863	0.001043
226.6924	0.000241
226.8985	0.000199
227.1046	0.000537
227.3107	0.000558
227.5169	-0.000709
227.7230	0.001001
227.9292	-0.000287
228.1354	0.001635
228.3416	0.000410
228.5478	-0.000456
228.7541	0.000220
228.9603	0.001487
229.1666	0.001571
229.3729	0.000452
229.5791	0.000283
229.7855	0.000537
229.9918	0.000516
230.1981	-0.000392
230.4045	0.000135
230.6108	0.001740
230.8172	0.001212
231.0236	0.000410
231.2300	-0.000646
231.4364	0.001064
231.6429	-0.001300
231.8493	0.000811
232.0558	0.000452
232.2623	0.000199
232.4688	0.000874
232.6753	0.000304
232.8818	0.000051
233.0884	0.000262
233.2949	0.001360
233.5015	0.001782
233.7081	0.001064
233.9147	0.000706
234.1213	0.000853
234.3279	0.000684
234.5346	-0.000667
234.7413	-0.000836
234.9479	0.001064
235.1546	-0.001279
235.3613	-0.000266
235.5680	-0.000413
235.7748	0.001508
235.9815	0.000241
236.1883	-0.000815
236.3951	0.000811
236.6018	0.000072
236.8087	0.000494
237.0155	-0.000202
237.2223	0.000473
237.4292	-0.000223
237.6360	0.001043
237.8429	-0.000772
238.0498	0.001191
238.2567	-0.001427
238.4636	0.000304
238.6706	0.000030
238.8775	0.000853
239.0845	-0.000582
239.2915	0.000790
239.4985	-0.001026
239.7055	-0.000688
239.9125	0.001423
240.1195	0.001170
240.3266	0.000558
240.5337	0.000959
240.7407	0.000283
240.9478	0.000093
241.1549	0.000811
241.3621	-0.000519
241.5692	-0.000962
241.7764	-0.000033
241.9835	0.001571
242.1907	0.001276
242.3979	0.000368
242.6051	-0.000688
242.8124	-0.000709
243.0196	0.000959
243.2269	-0.001152
243.4341	0.000389
243.6414	-0.000371
243.8487	0.000220
244.0560	0.000030
244.2634	0.000452
244.4707	0.000516
244.6781	0.001381
244.8854	0.000072
245.0928	0.001381
245.3002	-0.000604
245.5076	0.001677
245.7151	0.000304
245.9225	0.000811
246.1300	-0.001152
246.3375	-0.000181
246.5449	0.000917
246.7524	-0.000456
246.9600	0.000283
247.1675	0.000874
247.3750	-0.000012
247.5826	-0.000055
247.7902	-0.000350
247.9978	0.001212
248.2054	0.000642
248.4130	0.000811
248.6206	0.000706
248.8283	0.000896
249.0359	0.000304
249.2436	0.001402
249.4513	0.000030
249.6590	0.000199
249.8667	0.000621
250.0745	-0.000308
250.2822	0.000896
250.4900	0.001149
250.6978	0.000135
250.9056	0.000917
251.1134	0.000009
251.3212	-0.000266
251.5290	-0.000857
251.7369	-0.000350
251.9447	-0.000012
252.1526	0.000621
252.3605	0.000199
252.5684	0.000558
252.7763	0.000516
252.9843	0.000917
253.1922	-0.000413
253.4002	0.001001
253.6082	-0.001174
253.8162	0.000811
254.0242	0.000473
254.2322	-0.000561
254.4402	0.000220
254.6483	0.001592
254.8564	-0.000604
255.0644	-0.000561
255.2725	0.000579
255.4806	0.001043
255.6888	-0.000012
255.8969	0.000853
256.1051	0.001086
256.3132	-0.000076
256.5214	0.000326
256.7296	0.000642
256.9378	-0.000688
257.1460	0.000304
257.3543	0.000178
257.5625	0.000157
257.7708	0.000220
257.9791	0.001825
258.1874	-0.000097
258.3957	0.001381
258.6040	0.000410
258.8124	0.001276
259.0207	0.000093
259.2291	0.000558
259.4375	-0.000709
259.6459	0.001149
259.8543	-0.000012
260.0627	-0.000139
260.2711	-0.001047
260.4796	0.001550
260.6881	0.001339
260.8965	0.000874
261.1050	0.000199
261.3135	0.000473
261.5221	-0.000012
261.7306	0.000896
261.9392	0.000579
262.1477	-0.000160
262.3563	0.000959
262.5649	0.000811
262.7735	0.000642
262.9822	0.000241
263.1908	-0.000118
263.3995	0.000030
263.6081	-0.001152
263.8168	0.001677
264.0255	0.000389
264.2342	0.001128
264.4429	0.000558
264.6517	-0.000350
264.8604	0.000874
265.0692	0.000072
265.2780	-0.000878
265.4868	0.001466
265.6956	-0.000012
265.9044	0.000368
266.1133	0.000684
266.3221	0.000684
266.5310	0.000009
266.7399	-0.000350
266.9488	0.001381
267.1577	0.001043
267.3666	-0.000477
267.5755	0.000304
267.7845	-0.001406
267.9935	0.001107
268.2024	0.000558
268.4114	0.000473
268.6205	0.001022
268.8295	0.000494
269.0385	0.000199
269.2476	0.001867
269.4566	-0.000625
269.6657	0.001170
269.8748	0.000537
270.0839	0.001128
270.2931	-0.000646
270.5022	0.001233
270.7114	-0.000329
270.9205	-0.000055
271.1297	0.000663
271.3389	0.000790
271.5481	-0.000245
271.7573	0.001972
271.9666	0.000494
272.1758	-0.000223
272.3851	-0.000582
272.5944	0.001487
272.8037	-0.000392
273.0130	-0.000245
273.2223	0.000938
273.4316	-0.000435
273.6410	0.000283
273.8504	-0.000582
274.0597	0.001445
274.2691	-0.000392
274.4785	0.000262
274.6880	0.000874
274.8974	0.001043
275.1069	0.000051
275.3163	0.001001
275.5258	0.000262
275.7353	-0.000498
275.9448	0.000832
276.1543	0.000706
276.3639	0.001466
276.5734	0.000853
276.7830	0.000368
276.9926	0.001466
277.2022	-0.000118
277.4118	-0.000878
277.6214	-0.000012
277.8310	-0.000625
278.0407	-0.000794
278.2503	-0.001385
278.4600	0.000874
278.6697	-0.002081
278.8794	0.000600
279.0891	0.000009
279.2989	-0.000730
279.5086	0.002036
279.7184	0.000135
279.9281	-0.000245
280.1379	0.000600
280.3477	0.000917
280.5576	0.000199
280.7674	-0.001131
280.9772	0.000706
281.1871	0.000874
281.3970	0.000220
281.6069	0.000917
281.8168	0.000304
282.0267	0.000452
282.2366	-0.000266
282.4466	-0.000055
282.6565	-0.001026
282.8665	-0.000266
283.0765	0.000072
283.2865	-0.000772
283.4965	0.000157
283.7065	-0.000646
283.9166	-0.000097
284.1266	0.000199
284.3367	0.000811
284.5468	0.000663
284.7569	0.001423
284.9670	0.000135
285.1771	0.002648
285.3873	0.000157
285.5974	-0.000266
285.8076	0.000748
286.0178	0.001529
286.2280	0.000093
286.4382	0.000452
286.6484	-0.000730
286.8587	0.002099
287.0689	-0.000308
287.2792	0.001529
287.4895	0.000093
287.6998	0.000135
287.9101	-0.001554
288.1204	0.000537
288.3308	0.001107
288.5411	0.000347
288.7515	0.001064
288.9619	0.000452
289.1723	-0.000181
289.3827	0.001318
289.5931	0.000135
289.8035	0.000621
290.0140	0.000537
290.2245	0.000051
290.4349	-0.000097
290.6454	0.000220
290.8559	-0.000625
291.0665	-0.000646
291.2770	0.000727
291.4875	-0.000815
291.6981	-0.000688
291.9087	0.001339
292.1193	-0.000266
292.3299	-0.000012
292.5405	0.000262
292.7511	0.001149
292.9618	-0.000392
293.1724	0.000326
293.3831	0.000832
293.5938	-0.000139
293.8045	-0.000413
294.0152	0.000304
294.2260	0.000537
294.4367	0.002205
294.6475	-0.000878
294.8582	0.000642
295.0690	-0.000202
295.2798	-0.000498
295.4906	-0.000266
295.7015	0.000473
295.9123	0.000135
296.1232	0.000600
296.3340	0.000009
296.5449	-0.000181
296.7558	-0.001068
296.9667	-0.000561
297.1777	-0.001026
297.3886	0.000684
297.5995	0.000874
297.8105	0.000537
298.0215	-0.000055
298.2325	0.001128
298.4435	-0.000097
298.6545	0.001381
298.8656	-0.000498
299.0766	0.001297
299.2877	-0.000688
299.4988	0.000938
299.7099	-0.000012
299.9210	-0.000582
300.1321	-0.000667
300.3432	-0.000097
300.5544	-0.000561
300.7655	0.000748
300.9767	0.000093
301.1879	0.000009
301.3991	-0.000139
301.6103	0.001107
301.8215	0.000220
302.0328	0.000706
302.2441	-0.000519
302.4553	0.001107
302.6666	0.001402
302.8779	-0.000561
303.0892	-0.000836
303.3006	0.000389
303.5119	0.000220
303.7233	0.000558
303.9346	-0.000012
304.1460	0.000389
304.3574	-0.000371
304.5688	0.001022
304.7803	-0.001385
304.9917	-0.000118
305.2031	-0.000477
305.4146	0.000938
305.6261	0.000114
305.8376	0.000262
306.0491	0.000494
306.2606	0.000473
306.4722	0.000178
306.6837	0.001170
306.8953	0.000790
307.1069	0.000473
307.3184	-0.000519
307.5301	0.000769
307.7417	-0.001701
307.9533	0.000283
308.1650	-0.000920
308.3766	0.001803
308.5883	0.000600
308.8000	-0.000519
309.0117	-0.000329
309.2234	0.001381
309.4351	0.000009
309.6469	0.001191
309.8586	0.000030
310.0704	-0.000392
310.2822	0.000473
310.4940	0.001487
310.7058	0.000030
310.9176	0.001592
311.1295	0.000600
311.3413	-0.000392
311.5532	-0.001195
311.7651	-0.000435
311.9770	0.000135
312.1889	0.000684
312.4008	-0.000477
312.6127	0.000684
312.8247	0.000030
313.0366	0.000516
313.2486	-0.000794
313.4606	0.001423
313.6726	0.001043
313.8846	-0.000245
314.0967	0.002289
314.3087	0.000347
314.5208	-0.000055
314.7328	-0.000392
314.9449	-0.000540
315.1570	-0.000181
315.3692	0.000051
315.5813	-0.000076
315.7934	-0.000118
316.0056	0.000917
316.2177	0.000220
316.4299	-0.000055
316.6421	-0.000287
316.8543	0.000389
317.0666	0.000663
317.2788	-0.000456
317.4911	0.001402
317.7033	-0.000076
317.9156	0.000030
318.1279	-0.000561
318.3402	-0.000392
318.5525	0.000410
318.7649	-0.001300
318.9772	0.001297
319.1896	0.000135
319.4019	0.000727
319.6143	0.001930
319.8267	0.000706
320.0392	0.000832
320.2516	-0.000055
320.4640	-0.000223
320.6765	0.001128
320.8890	-0.000287
321.1014	0.000811
321.3139	0.001001
321.5265	0.000790
321.7390	0.000621
321.9515	-0.000118
322.1641	0.001761
322.3766	-0.000012
322.5892	0.000347
322.8018	0.000579
323.0144	-0.001068
323.2270	0.000537
323.4397	-0.000350
323.6523	0.000389
323.8650	0.000030
324.0777	0.000938
324.2904	-0.000329
324.5031	-0.000815
324.7158	0.000389
324.9285	0.000135
325.1412	0.000452
325.3540	0.001381
325.5668	-0.000646
325.7796	0.000874
325.9924	-0.000540
326.2052	-0.000245
326.4180	0.000009
326.6308	0.000874
326.8437	0.000389
327.0566	0.001825
327.2694	0.000537
327.4823	-0.000223
327.6952	0.000959
327.9082	0.000494
328.1211	-0.000794
328.3340	-0.000223
328.5470	0.000347
328.7600	0.000452
328.9730	-0.000202
329.1860	0.000896
329.3990	0.000072
329.6120	0.001402
329.8251	-0.000181
330.0381	0.000199
330.2512	-0.000097
330.4643	0.000410
330.6774	0.000558
330.8905	0.000727
331.1036	0.000769
331.3167	0.001402
331.5299	0.000431
331.7431	0.000304
331.9562	-0.000118
332.1694	-0.000012
332.3826	0.000832
332.5959	0.000959
332.8091	-0.000477
333.0223	0.001043
333.2356	0.000558
333.4489	0.001191
333.6622	-0.000667
333.8755	0.001297
334.0888	-0.000223
334.3021	0.000896
334.5154	0.001656
334.7288	0.001170
334.9422	-0.000055
335.1555	0.001107
335.3689	0.001529
335.5823	0.000917
335.7958	0.000706
336.0092	0.001550
336.2227	0.000537
336.4361	0.001381
336.6496	0.000135
336.8631	-0.001237
337.0766	-0.000561
337.2901	0.000178
337.5036	-0.000033
337.7172	-0.000033
337.9307	0.000727
338.1443	0.001339
338.3579	-0.000794
338.5715	0.000199
338.7851	0.000769
338.9987	0.001571
339.2124	0.000410
339.4260	0.000853
339.6397	0.000135
339.8533	0.000727
340.0670	0.000663
340.2807	-0.000245
340.4945	0.000220
340.7082	0.000347
340.9219	-0.000625
341.1357	0.000431
341.3495	0.001466
341.5633	0.001782
341.7771	0.001064
341.9909	0.000706
342.2047	0.001803
342.4185	0.000051
342.6324	0.000874
342.8463	0.000452
343.0601	-0.001617
343.2740	0.000832
343.4879	-0.000413
343.7019	0.000072
343.9158	0.000769
344.1297	0.000917
344.3437	0.001191
344.5577	0.000030
344.7717	0.000706
344.9857	0.001149
345.1997	0.000832
345.4137	-0.000118
345.6277	-0.000477
345.8418	-0.000055
346.0559	-0.000941
346.2699	0.000093
346.4840	-0.000519
346.6981	0.001635
346.9123	0.000537
347.1264	0.000811
347.3406	-0.001152
347.5547	-0.000540
347.7689	-0.000751
347.9831	0.000030
348.1973	-0.000920
348.4115	0.001191
348.6257	0.000389
348.8400	0.000093
349.0542	-0.000266
349.2685	0.000537
349.4828	-0.001110
349.6971	0.000199
349.9114	-0.000076
350.1257	0.001022
350.3400	-0.000477
350.5544	0.000938
350.7687	-0.001237
350.9831	0.000917
351.1975	0.000748
351.4119	-0.000751
351.6263	0.000051
351.8407	0.000684
352.0552	0.000368
352.2696	0.000706
352.4841	-0.000941
352.6986	0.000009
352.9131	0.000304
353.1276	0.001846
353.3421	-0.000772
353.5566	-0.000392
353.7712	0.000241
353.9858	0.000684
354.2003	0.000494
354.4149	0.000241
354.6295	-0.000118
354.8441	0.000917
355.0588	0.000537
355.2734	0.000684
355.4881	0.000241
355.7027	0.000980
355.9174	0.001782
356.1321	-0.000413
356.3468	-0.000435
356.5615	0.000452
356.7763	0.000220
356.9910	0.000621
357.2058	0.000663
357.4206	0.001635
357.6353	0.001339
357.8501	0.000199
358.0650	-0.000920
358.2798	-0.000012
358.4946	-0.000371
358.7095	0.001592
358.9243	0.001909
359.1392	0.001550
359.3541	0.000748
359.5690	-0.000540
359.7839	-0.000287
359.9989	0.000347
360.2138	0.000853
360.4288	0.000959
360.6438	0.002479
360.8587	0.000558
361.0737	0.000199
361.2888	0.001740
361.5038	0.000389
361.7188	0.001423
361.9339	-0.000920
362.1489	-0.000202
362.3640	0.000579
362.5791	-0.000730
362.7942	0.001255
363.0093	-0.000181
363.2245	0.000326
363.4396	-0.000371
363.6548	0.000093
363.8699	0.000494
364.0851	0.001043
364.3003	0.000896
364.5155	0.000896
364.7308	0.001107
364.9460	-0.000709
365.1612	0.001318
365.3765	0.000980
365.5918	0.000326
365.8071	0.000135
366.0224	0.000410
366.2377	-0.000899
366.4530	0.000368
366.6684	-0.000371
366.8837	0.000220
367.0991	0.000769
367.3145	0.000473
367.5299	0.000220
367.7453	0.000326
367.9607	0.000389
368.1761	-0.000139
368.3916	0.000748
368.6070	0.001297
368.8225	0.000621
369.0380	0.000178
369.2535	-0.000477
369.4690	0.001571
369.6845	0.000896
369.9001	0.000558
370.1156	0.001107
370.3312	-0.000920
370.5468	0.000030
370.7624	0.000283
370.9780	0.000473
371.1936	0.001001
371.4092	0.000051
371.6249	0.000135
371.8405	-0.001047
372.0562	0.000537
372.2719	0.000494
372.4876	0.001782
372.7033	0.002247
372.9190	-0.000266
373.1348	0.000157
373.3505	0.000811
373.5663	0.001761
373.7820	0.000579
373.9978	-0.000097
374.2136	-0.000477
374.4294	-0.000582
374.6453	0.000706
374.8611	0.000304
375.0770	0.001255
375.2928	0.000811
375.5087	-0.001110
375.7246	0.001064
375.9405	0.001170
376.1564	0.001043
376.3724	0.000135
376.5883	0.001086
376.8043	-0.000202
377.0203	0.000684
377.2362	0.001508
377.4522	0.000959
377.6682	0.000051
377.8843	0.000537
378.1003	-0.000582
378.3164	0.000347
378.5324	-0.000625
378.7485	-0.001026
378.9646	0.000389
379.1807	0.000853
379.3968	0.000663
379.6129	0.000241
379.8291	-0.000287
380.0452	0.001381
380.2614	0.000600
380.4776	-0.001258
380.6938	0.001508
380.9100	-0.000561
381.1262	0.000410
381.3424	0.000832
381.5587	0.001423
381.7749	0.000220
381.9912	-0.000055
382.2075	-0.000055
382.4238	0.001297
382.6401	-0.000287
382.8564	0.000537
383.0728	0.000642
383.2891	-0.000012
383.5055	0.001170
383.7219	0.002352
383.9382	0.001592
384.1546	0.000326
384.3711	-0.000139
384.5875	0.001001
384.8039	-0.000392
385.0204	0.000959
385.2368	-0.000097
385.4533	0.000452
385.6698	-0.001110
385.8863	-0.000413
386.1028	-0.000878
386.3194	-0.000012
386.5359	-0.000498
386.7525	0.000663
386.9690	0.001212
387.1856	0.000030
387.4022	0.001423
387.6188	-0.000202
387.8355	0.000093
388.0521	-0.000055
388.2687	0.000030
388.4854	0.000410
388.7021	0.001212
388.9188	0.001212
389.1355	-0.000582
389.3522	0.001466
389.5689	0.000157
389.7856	0.000748
390.0024	0.000537
390.2192	0.001402
390.4359	0.000157
390.6527	0.001233
390.8695	-0.000202
391.0863	0.001635
391.3032	0.000853
391.5200	0.001339
391.7369	0.000663
391.9537	0.001276
392.1706	0.000663
392.3875	0.002141
392.6044	0.000980
392.8213	0.002226
393.0383	0.000874
393.2552	0.003345
393.4722	0.001888
393.6891	0.002986
393.9061	0.001191
394.1231	0.003450
394.3401	0.001064
394.5572	0.002310
394.7742	0.001212
394.9912	0.002796
395.2083	0.001972
395.4254	0.001782
395.6425	0.001930
395.8596	0.001529
396.0767	0.002395
396.2938	0.003324
396.5109	0.001761
396.7281	0.003091
396.9453	0.003049
397.1624	0.003767
397.3796	0.001867
397.5968	0.002965
397.8140	0.003809
398.0313	0.003725
398.2485	0.004147
398.4658	0.002817
398.6830	0.004506
398.9003	0.004844
399.1176	0.002564
399.3349	0.003598
399.5522	0.004105
399.7696	0.004654
399.9869	0.002057
400.2043	0.004105
400.4216	0.003767
400.6390	0.003704
400.8564	0.002500
401.0738	0.004253
401.2912	0.004612
401.5087	0.005604
401.7261	0.005161
401.9436	0.005266
402.1610	0.003598
402.3785	0.004379
402.5960	0.004633
402.8135	0.006744
403.0310	0.004992
403.2486	0.003915
403.4661	0.003598
403.6837	0.007356
403.9013	0.005625
404.1189	0.005287
404.3365	0.006554
404.5541	0.006364
404.7717	0.006280
404.9893	0.006829
405.2070	0.006005
405.4246	0.008539
405.6423	0.008243
405.8600	0.007568
406.0777	0.005456
406.2954	0.005646
406.5131	0.006617
406.7309	0.007293
406.9486	0.006385
407.1664	0.006829
407.3842	0.006997
407.6020	0.008032
407.8198	0.007990
408.0376	0.006195
408.2554	0.007546
408.4733	0.006723
408.6911	0.008412
408.9090	0.007969
409.1269	0.008011
409.3448	0.008644
409.5627	0.009763
409.7806	0.006132
409.9985	0.008116
410.2165	0.009404
410.4344	0.008877
410.6524	0.008602
410.8704	0.009003
411.0884	0.008370
411.3064	0.008919
411.5244	0.008813
411.7424	0.008602
411.9605	0.009489
412.1785	0.008729
412.3966	0.010249
412.6147	0.009552
412.8328	0.009806
413.0509	0.010418
413.2690	0.009024
413.4871	0.010946
413.7053	0.010756
413.9234	0.011220
414.1416	0.010545
414.3598	0.010904
414.5780	0.011157
414.7962	0.010671
415.0144	0.010249
415.2326	0.009827
415.4509	0.011284
415.6692	0.009953
415.8874	0.010080
416.1057	0.012107
416.3240	0.010861
416.5423	0.009721
416.7606	0.011938
416.9790	0.012508
417.1973	0.012529
417.4157	0.013733
417.6341	0.012023
417.8524	0.013353
418.0708	0.011685
418.2893	0.013838
418.5077	0.011664
418.7261	0.012909
418.9446	0.013374
419.1630	0.013733
419.3815	0.014282
419.6000	0.012804
419.8185	0.013036
420.0370	0.013669
420.2555	0.013057
420.4741	0.014957
420.6926	0.014282
420.9112	0.015591
421.1298	0.015337
421.3483	0.015591
421.5669	0.017090
421.7856	0.017301
422.0042	0.019201
422.2228	0.015929
422.4415	0.015654
422.6601	0.016140
422.8788	0.016752
423.0975	0.017069
423.3162	0.016583
423.5349	0.017027
423.7536	0.018167
423.9724	0.018019
424.1911	0.014620
424.4099	0.016435
424.6287	0.015527
424.8475	0.016879
425.0663	0.015992
425.2851	0.017449
425.5039	0.016266
425.7228	0.018082
425.9416	0.015971
426.1605	0.016689
426.3793	0.014810
426.5982	0.016203
426.8171	0.015739
427.0361	0.015485
427.2550	0.015739
427.4739	0.019117
427.6929	0.017343
427.9118	0.016076
428.1308	0.015907
428.3498	0.018378
428.5688	0.017385
