# Wavelength (nm)	Intensity (a.u.)
197.7802	0.000614
197.9842	-0.001096
198.1882	0.000952
198.3922	-0.001434
198.5963	0.000171
198.8003	-0.000083
199.0044	-0.001033
199.2085	-0.000970
199.4126	0.001036
199.6168	-0.000252
199.8209	-0.000653
200.0251	0.000593
200.2292	0.001163
200.4334	-0.000167
200.6376	-0.000231
200.8418	0.001100
201.0461	0.000002
201.2503	0.000023
201.4546	0.000635
201.6589	0.000677
201.8631	0.000340
202.0674	-0.000083
202.2718	0.000445
202.4761	-0.000442
202.6805	0.000403
202.8848	0.000234
203.0892	0.000128
203.2936	0.000276
203.4980	0.001860
203.7024	-0.000948
203.9069	0.000318
204.1113	-0.000146
204.3158	0.000403
204.5203	0.000804
204.7248	-0.000716
204.9293	-0.000463
205.1338	0.000044
205.3384	0.000551
205.5430	0.000867
205.7475	0.000150
205.9521	0.000086
206.1567	-0.000822
206.3614	0.001585
206.5660	-0.000231
206.7706	-0.000399
206.9753	-0.000822
207.1800	0.000867
207.3847	-0.000801
207.5894	0.000614
207.7941	0.001522
207.9989	0.001881
208.2036	0.000466
208.4084	0.000762
208.6132	0.000318
208.8180	-0.000019
209.0228	-0.000779
209.2276	0.000614
209.4325	-0.000357
209.6373	0.001332
209.8422	-0.000019
210.0471	0.000318
210.2520	-0.000484
210.4569	0.000255
210.6618	-0.000695
210.8668	-0.000125
211.0718	0.001015
211.2767	0.000572
211.4817	-0.000906
211.6867	0.001564
211.8918	-0.000737
212.0968	0.000213
212.3018	0.000340
212.5069	-0.000885
212.7120	0.000593
212.9171	0.000361
213.1222	-0.000674
213.3273	0.000677
213.5325	0.000107
213.7376	0.001332
213.9428	0.000804
214.1480	-0.000442
214.3532	0.000551
214.5584	-0.000125
214.7636	-0.000252
214.9689	0.000044
215.1741	-0.000568
215.3794	0.000677
215.5847	-0.001350
215.7900	0.001100
215.9953	-0.000040
216.2007	0.001480
216.4060	0.000762
216.6114	0.001438
216.8168	0.001142
217.0222	0.000656
217.2276	0.000361
217.4330	0.000234
217.6384	-0.000209
217.8439	0.002303
218.0494	-0.001455
218.2548	-0.000505
218.4603	-0.001772
218.6659	0.000572
218.8714	-0.001117
219.0769	-0.000779
219.2825	0.000255
219.4881	0.000656
219.6936	-0.001181
219.8992	0.001226
220.1049	0.000044
220.3105	-0.000040
220.5161	0.000382
220.7218	-0.000167
220.9275	-0.000695
221.1332	-0.000019
221.3389	0.000255
221.5446	0.000825
221.7503	0.000340
221.9561	0.000825
222.1618	-0.000378
222.3676	0.000677
222.5734	0.000783
222.7792	0.000171
222.9850	-0.001138
223.1909	0.000445
223.3967	0.000783
223.6026	0.000424
223.8085	-0.000674
224.0144	0.000656
224.2203	0.000002
224.4262	-0.000463
224.6322	0.000361
224.8381	-0.000104
225.0441	0.001015
225.2501	0.000466
225.4561	0.000403
225.6621	0.000846
225.8681	0.001184
226.0742	-0.001350
226.2802	0.001585
226.4863	-0.000758
226.6924	-0.001645
226.8985	0.000128
227.1046	-0.000146
227.3107	0.001142
227.5169	0.000171
227.7230	-0.000104
227.9292	-0.001160
228.1354	-0.000632
228.3416	-0.000019
228.5478	-0.000505
228.7541	0.000466
228.9603	0.000741
229.1666	0.000044
229.3729	0.000276
229.5791	-0.001033
229.7855	0.001353
229.9918	-0.000040
230.1981	-0.000336
230.4045	0.000889
230.6108	0.001163
230.8172	0.000466
231.0236	0.000867
231.2300	-0.000484
231.4364	0.000867
231.6429	0.000825
231.8493	0.000403
232.0558	-0.001286
232.2623	-0.000674
232.4688	-0.000040
232.6753	-0.000040
232.8818	0.001416
233.0884	0.000318
233.2949	-0.000040
233.5015	0.001733
233.7081	0.000065
233.9147	0.000804
234.1213	-0.000526
234.3279	0.001121
234.5346	-0.000019
234.7413	0.000931
234.9479	0.000213
235.1546	-0.000040
235.3613	0.000002
235.5680	0.001585
235.7748	0.000213
235.9815	-0.000336
236.1883	-0.000231
236.3951	-0.000231
236.6018	-0.000104
236.8087	0.000361
237.0155	-0.000146
237.2223	0.000889
237.4292	0.000720
237.6360	0.000614
237.8429	0.000276
238.0498	-0.000231
238.2567	0.000107
238.4636	0.000086
238.6706	0.000846
238.8775	0.001374
239.0845	0.000192
239.2915	0.000255
239.4985	0.000234
239.7055	0.001058
239.9125	0.000171
240.1195	0.000128
240.3266	0.000931
240.5337	-0.000336
240.7407	0.000023
240.9478	0.000952
241.1549	0.000551
241.3621	-0.000442
241.5692	-0.001434
241.7764	0.001712
241.9835	0.000445
242.1907	0.001712
242.3979	0.000635
242.6051	0.001353
242.8124	0.000065
243.0196	-0.000062
243.2269	-0.000083
243.4341	0.001015
243.6414	0.000466
243.8487	0.001522
244.0560	0.000614
244.2634	0.000171
244.4707	0.000023
244.6781	0.001058
244.8854	-0.000864
245.0928	-0.000948
245.3002	-0.000294
245.5076	0.000677
245.7151	-0.000589
245.9225	0.000783
246.1300	-0.001075
246.3375	0.001121
246.5449	0.000382
246.7524	0.001987
246.9600	0.001374
247.1675	-0.000231
247.3750	0.000276
247.5826	0.001121
247.7902	0.000044
247.9978	-0.000083
248.2054	-0.000188
248.4130	0.000150
248.6206	0.000107
248.8283	0.000973
249.0359	0.000487
249.2436	0.000276
249.4513	0.001628
249.6590	0.000466
249.8667	-0.000505
250.0745	-0.001835
250.2822	-0.000062
250.4900	0.000403
250.6978	0.000023
250.9056	0.000192
251.1134	-0.000294
251.3212	0.001881
251.5290	-0.000357
251.7369	-0.001519
251.9447	-0.001012
252.1526	-0.000083
252.3605	0.000340
252.5684	-0.001117
252.7763	0.000572
252.9843	-0.000399
253.1922	-0.001328
253.4002	-0.000399
253.6082	-0.000399
253.8162	-0.000421
254.0242	0.001015
254.2322	0.001459
254.4402	0.000340
254.6483	-0.000399
254.8564	0.000783
255.0644	0.001248
255.2725	0.000297
255.4806	0.000086
255.6888	0.000361
255.8969	-0.001223
256.1051	0.000593
256.3132	0.000466
256.5214	0.000804
256.7296	-0.000399
256.9378	-0.001265
257.1460	0.001543
257.3543	0.000255
257.5625	0.000445
257.7708	0.000424
257.9791	0.000086
258.1874	-0.000062
258.3957	0.000255
258.6040	-0.000589
258.8124	0.002134
259.0207	-0.000273
259.2291	0.001438
259.4375	0.000867
259.6459	0.000065
259.8543	-0.001603
260.0627	0.000044
260.2711	0.001332
260.4796	-0.000589
260.6881	-0.000906
260.8965	0.001058
261.1050	-0.000019
261.3135	0.000171
261.5221	-0.000062
261.7306	0.000720
261.9392	-0.000822
262.1477	0.000044
262.3563	-0.001117
262.5649	0.000150
262.7735	0.000487
262.9822	-0.000421
263.1908	-0.000062
263.3995	-0.002469
263.6081	-0.002004
263.8168	-0.000653
264.0255	0.000234
264.2342	0.000952
264.4429	0.000487
264.6517	0.001374
264.8604	0.000086
265.0692	-0.000336
265.2780	-0.000885
265.4868	0.001332
265.6956	0.000509
265.9044	0.000677
266.1133	-0.000906
266.3221	-0.000357
266.5310	0.000530
266.7399	0.000635
266.9488	-0.000442
267.1577	0.000741
267.3666	-0.000632
267.5755	0.000002
267.7845	-0.000758
267.9935	-0.000822
268.2024	-0.000674
268.4114	0.000466
268.6205	0.000065
268.8295	0.000002
269.0385	0.000255
269.2476	0.000276
269.4566	0.000086
269.6657	0.001015
269.8748	-0.000378
270.0839	-0.000991
270.2931	0.000783
270.5022	0.000065
270.7114	-0.001540
270.9205	0.000825
271.1297	0.001311
271.3389	0.000403
271.5481	-0.000991
271.7573	0.000318
271.9666	0.000297
272.1758	0.000340
272.3851	-0.001814
272.5944	0.000002
272.8037	-0.001687
273.0130	-0.000505
273.2223	0.000445
273.4316	-0.000484
273.6410	-0.000991
273.8504	0.000023
274.0597	0.001438
274.2691	0.000699
274.4785	0.000002
274.6880	0.001079
274.8974	0.000910
275.1069	0.000656
275.3163	0.000445
275.5258	-0.000695
275.7353	-0.000399
275.9448	-0.000927
276.1543	0.000192
276.3639	0.000382
276.5734	-0.000526
276.7830	0.000297
276.9926	-0.002025
277.2022	-0.000146
277.4118	0.001290
277.6214	0.001395
277.8310	0.000551
278.0407	0.000318
278.2503	0.000318
278.4600	0.000762
278.6697	-0.000611
278.8794	0.000509
279.0891	-0.000843
279.2989	0.000741
279.5086	-0.000294
279.7184	-0.000104
279.9281	0.000255
280.1379	-0.000526
280.3477	-0.000801
280.5576	0.000086
280.7674	0.000487
280.9772	0.000002
281.1871	-0.000167
281.3970	-0.000252
281.6069	-0.000357
281.8168	0.001290
282.0267	-0.000611
282.2366	0.000023
282.4466	-0.000674
282.6565	0.000509
282.8665	-0.001181
283.0765	0.000150
283.2865	-0.001455
283.4965	-0.000167
283.7065	-0.000948
283.9166	0.001564
284.1266	0.000741
284.3367	-0.000505
284.5468	0.000910
284.7569	-0.000442
284.9670	0.000044
285.1771	-0.000378
285.3873	0.000509
285.5974	0.000382
285.8076	-0.000357
286.0178	-0.001012
286.2280	0.001226
286.4382	0.001015
286.6484	-0.001138
286.8587	0.000424
287.0689	0.000403
287.2792	0.001184
287.4895	-0.000611
287.6998	0.001564
287.9101	0.000171
288.1204	-0.000273
288.3308	-0.000948
288.5411	-0.000294
288.7515	0.000361
288.9619	0.000065
289.1723	-0.000294
289.3827	0.000572
289.5931	0.000128
289.8035	0.000276
290.0140	-0.001202
290.2245	0.001585
290.4349	-0.000526
290.6454	0.001100
290.8559	-0.001012
291.0665	0.000023
291.2770	-0.000526
291.4875	0.000910
291.6981	-0.000273
291.9087	-0.000589
292.1193	0.000150
292.3299	-0.000906
292.5405	0.000509
292.7511	0.000318
292.9618	0.001163
293.1724	-0.000801
293.3831	-0.001371
293.5938	0.000403
293.8045	0.000234
294.0152	0.000741
294.2260	0.000530
294.4367	0.001142
294.6475	-0.000843
294.8582	0.000910
295.0690	0.000213
295.2798	0.000065
295.4906	-0.000231
295.7015	0.000107
295.9123	-0.000083
296.1232	-0.001096
296.3340	-0.000695
296.5449	0.000023
296.7558	-0.000611
296.9667	0.001248
297.1777	0.001248
297.3886	0.000424
297.5995	-0.001434
297.8105	-0.000125
298.0215	-0.000146
298.2325	0.000530
298.4435	0.000044
298.6545	0.000889
298.8656	-0.000188
299.0766	-0.000252
299.2877	0.000044
299.4988	0.000551
299.7099	-0.000357
299.9210	0.000044
300.1321	0.001248
300.3432	0.001079
300.5544	0.000403
300.7655	0.000318
300.9767	-0.000040
301.1879	-0.000083
301.3991	0.001923
301.6103	-0.000695
301.8215	0.002198
302.0328	0.001290
302.2441	-0.000104
302.4553	0.000150
302.6666	-0.000526
302.8779	0.000593
303.0892	-0.000357
303.3006	-0.000336
303.5119	0.000593
303.7233	-0.001223
303.9346	-0.000357
304.1460	0.001459
304.3574	0.000023
304.5688	0.001079
304.7803	0.000234
304.9917	-0.000209
305.2031	-0.001307
305.4146	-0.000146
305.6261	0.000509
305.8376	0.000720
306.0491	-0.000716
306.2606	0.000107
306.4722	-0.000632
306.6837	0.000656
306.8953	0.000128
307.1069	0.000340
307.3184	-0.000315
307.5301	-0.000273
307.7417	0.000931
307.9533	-0.000991
308.1650	-0.000019
308.3766	-0.000442
308.5883	0.000107
308.8000	0.000128
309.0117	0.000340
309.2234	0.000002
309.4351	0.000931
309.6469	0.000297
309.8586	0.000044
310.0704	0.000677
310.2822	0.000720
310.4940	0.000445
310.7058	-0.000273
310.9176	-0.000674
311.1295	0.000656
311.3413	0.002029
311.5532	-0.000822
311.7651	0.000150
311.9770	-0.000273
312.1889	0.001184
312.4008	-0.000801
312.6127	0.000572
312.8247	0.001248
313.0366	0.001395
313.2486	-0.000948
313.4606	0.000002
313.6726	-0.000547
313.8846	-0.001138
314.0967	0.000276
314.3087	-0.000442
314.5208	-0.001181
314.7328	0.000340
314.9449	-0.000568
315.1570	0.000614
315.3692	0.001353
315.5813	0.000318
315.7934	0.000593
316.0056	0.001248
316.2177	-0.000294
316.4299	0.002388
316.6421	0.000234
316.8543	0.000107
317.0666	-0.000125
317.2788	0.000234
317.4911	0.000297
317.7033	0.000086
317.9156	0.000340
318.1279	0.000994
318.3402	0.000044
318.5525	0.002050
318.7649	0.000171
318.9772	-0.000273
319.1896	-0.000991
319.4019	0.000340
319.6143	0.000002
319.8267	0.000044
320.0392	-0.000252
320.2516	0.001079
320.4640	-0.000568
320.6765	0.000677
320.8890	-0.000231
321.1014	0.000614
321.3139	0.000466
321.5265	0.000487
321.7390	-0.000611
321.9515	0.000403
322.1641	0.000424
322.3766	0.000297
322.5892	-0.001434
322.8018	0.000952
323.0144	-0.001033
323.2270	-0.000611
323.4397	0.001058
323.6523	0.001965
323.8650	-0.001054
324.0777	-0.000378
324.2904	0.000023
324.5031	0.000340
324.7158	-0.000991
324.9285	0.001290
325.1412	-0.000611
325.3540	0.001142
325.5668	-0.000695
325.7796	0.000867
325.9924	0.000023
326.2052	0.000255
326.4180	-0.000906
326.6308	-0.001497
326.8437	0.002367
327.0566	0.000255
327.2694	0.001459
327.4823	-0.000019
327.6952	-0.000125
327.9082	-0.000231
328.1211	-0.000019
328.3340	0.001670
328.5470	0.000213
328.7600	-0.000357
328.9730	-0.000421
329.1860	0.000572
329.3990	0.000107
329.6120	0.000699
329.8251	0.000445
330.0381	0.000107
330.2512	-0.000104
330.4643	-0.000083
330.6774	-0.000843
330.8905	0.000318
331.1036	0.000931
331.3167	-0.000568
331.5299	0.000192
331.7431	-0.000315
331.9562	-0.000315
332.1694	0.000593
332.3826	-0.000336
332.5959	0.001501
332.8091	-0.000188
333.0223	0.001628
333.2356	0.000382
333.4489	0.000361
333.6622	0.000150
333.8755	0.000318
334.0888	0.000318
334.3021	0.001839
334.5154	0.000804
334.7288	0.001353
334.9422	0.000340
335.1555	0.000065
335.3689	0.000424
335.5823	0.001290
335.7958	-0.000547
336.0092	0.001670
336.2227	-0.000019
336.4361	-0.000252
336.6496	-0.000421
336.8631	-0.000758
337.0766	-0.000378
337.2901	-0.000104
337.5036	0.000086
337.7172	0.002641
337.9307	-0.000801
338.1443	-0.000273
338.3579	-0.000674
338.5715	-0.001202
338.7851	0.001015
338.9987	0.000276
339.2124	-0.000104
339.4260	0.001564
339.6397	-0.000421
339.8533	0.001585
340.0670	0.000192
340.2807	0.000213
340.4945	0.000720
340.7082	-0.000864
340.9219	-0.000589
341.1357	0.002092
341.3495	-0.000484
341.5633	0.000889
341.7771	-0.000526
341.9909	0.000551
342.2047	-0.000632
342.4185	0.000635
342.6324	-0.000589
342.8463	-0.000526
343.0601	-0.002089
343.2740	0.000340
343.4879	0.000065
343.7019	0.000699
343.9158	-0.000062
344.1297	-0.000526
344.3437	-0.000104
344.5577	0.000150
344.7717	0.000255
344.9857	-0.000019
345.1997	0.000530
345.4137	0.000530
345.6277	-0.000779
345.8418	0.000804
346.0559	-0.000843
346.2699	-0.000927
346.4840	-0.000209
346.6981	-0.000188
346.9123	0.000931
347.1264	0.000509
347.3406	0.000445
347.5547	-0.000040
347.7689	-0.000948
347.9831	0.000445
348.1973	-0.000801
348.4115	0.000065
348.6257	0.000340
348.8400	0.001205
349.0542	0.000973
349.2685	0.000086
349.4828	-0.000442
349.6971	0.001015
349.9114	0.000572
350.1257	-0.000547
350.3400	-0.000209
350.5544	0.001205
350.7687	0.000530
350.9831	0.000487
351.1975	0.000741
351.4119	-0.000188
351.6263	-0.000357
351.8407	0.000699
352.0552	-0.000758
352.2696	0.000720
352.4841	0.001100
352.6986	0.000255
352.9131	0.000656
353.1276	-0.000357
353.3421	0.000044
353.5566	0.001163
353.7712	-0.001075
353.9858	0.000297
354.2003	0.000509
354.4149	0.001248
354.6295	-0.000188
354.8441	0.001248
355.0588	-0.000378
355.2734	-0.001202
355.4881	0.001058
355.7027	-0.000442
355.9174	0.000445
356.1321	0.001438
356.3468	-0.000442
356.5615	0.000150
356.7763	0.000044
356.9910	0.000086
357.2058	0.001058
357.4206	-0.000146
357.6353	0.000234
357.8501	0.000889
358.0650	-0.000991
358.2798	0.001459
358.4946	-0.000167
358.7095	-0.000104
358.9243	-0.000294
359.1392	0.000466
359.3541	-0.000843
359.5690	-0.000083
359.7839	-0.000674
359.9989	0.001142
360.2138	-0.000357
360.4288	0.000213
360.6438	-0.000273
360.8587	0.001079
361.0737	-0.000442
361.2888	0.000487
361.5038	-0.000970
361.7188	-0.001096
361.9339	0.000466
362.1489	0.000403
362.3640	0.000234
362.5791	0.000318
362.7942	0.001269
363.0093	0.002092
363.2245	-0.000885
363.4396	0.000466
363.6548	-0.001603
363.8699	0.001733
364.0851	0.000741
364.3003	-0.000104
364.5155	0.000889
364.7308	0.000509
364.9460	0.000255
365.1612	0.000867
365.3765	-0.000125
365.5918	-0.000019
365.8071	0.000572
366.0224	0.000128
366.2377	0.000276
366.4530	0.000593
366.6684	0.000931
366.8837	0.000593
367.0991	-0.000970
367.3145	-0.000885
367.5299	0.000931
367.7453	-0.000146
367.9607	-0.000188
368.1761	0.000276
368.3916	-0.000294
368.6070	0.000382
368.8225	0.000424
369.0380	-0.000779
369.2535	-0.000442
369.4690	-0.000421
369.6845	0.000171
369.9001	0.000551
370.1156	-0.000547
370.3312	0.001269
370.5468	0.000128
370.7624	0.000825
370.9780	-0.000273
371.1936	0.000487
371.4092	-0.000357
371.6249	0.000699
371.8405	-0.001265
372.0562	0.001712
372.2719	-0.000695
372.4876	0.000487
372.7033	0.000551
372.9190	0.000910
373.1348	-0.000357
373.3505	0.001585
373.5663	-0.000589
373.7820	0.001649
373.9978	0.000276
374.2136	0.000804
374.4294	-0.000062
374.6453	0.000825
374.8611	0.000044
375.0770	0.000804
375.2928	0.000128
375.5087	-0.000062
375.7246	-0.000632
375.9405	0.000931
376.1564	0.000192
376.3724	-0.000399
376.5883	0.000804
376.8043	0.001353
377.0203	-0.000484
377.2362	0.000171
377.4522	0.000150
377.6682	0.002409
377.8843	0.000276
378.1003	0.000086
378.3164	-0.000378
378.5324	0.000255
378.7485	0.000530
378.9646	0.000762
379.1807	-0.000864
379.3968	0.000213
379.6129	-0.000695
379.8291	0.000551
380.0452	0.000551
380.2614	0.000572
380.4776	0.000150
380.6938	-0.000674
380.9100	0.001691
381.1262	0.000994
381.3424	0.000846
381.5587	0.000361
381.7749	-0.000442
381.9912	-0.000019
382.2075	-0.000611
382.4238	0.000530
382.6401	0.000466
382.8564	-0.000399
383.0728	0.000509
383.2891	0.000276
383.5055	-0.000167
383.7219	0.000086
383.9382	0.001036
384.1546	0.000002
384.3711	0.001438
384.5875	0.000593
384.8039	-0.000019
385.0204	0.001311
385.2368	-0.000589
385.4533	0.000150
385.6698	0.000086
385.8863	0.001987
386.1028	-0.000970
386.3194	0.000255
386.5359	0.000741
386.7525	0.000192
386.9690	0.000424
387.1856	0.000783
387.4022	0.001311
387.6188	-0.000167
387.8355	0.002113
388.0521	0.001564
388.2687	0.001184
388.4854	0.002155
388.7021	0.000445
388.9188	0.000255
389.1355	0.001987
389.3522	0.002219
389.5689	0.001839
389.7856	0.003085
390.0024	0.002578
390.2192	0.002282
390.4359	0.002599
390.6527	0.004541
390.8695	0.003634
391.0863	0.003697
391.3032	0.002873
391.5200	0.003824
391.7369	0.003211
391.9537	0.004731
392.1706	0.004795
392.3875	0.005893
392.6044	0.005724
392.8213	0.006737
393.0383	0.005365
393.2552	0.007181
393.4722	0.006737
393.6891	0.007645
393.9061	0.006822
394.1231	0.007519
394.3401	0.006927
394.5572	0.007540
394.7742	0.007519
394.9912	0.008954
395.2083	0.009123
395.4254	0.010242
395.6425	0.008173
395.8596	0.008279
396.0767	0.009715
396.2938	0.010580
396.5109	0.011024
396.7281	0.011467
396.9453	0.008469
397.1624	0.011868
397.3796	0.011889
397.5968	0.014043
397.8140	0.013579
398.0313	0.015479
398.2485	0.013515
398.4658	0.015162
398.6830	0.014951
398.9003	0.016197
399.1176	0.013874
399.3349	0.016112
399.5522	0.014867
399.7696	0.014360
399.9869	0.015268
400.2043	0.015352
400.4216	0.013769
400.6390	0.016302
400.8564	0.016999
401.0738	0.013515
401.2912	0.018900
401.5087	0.017464
401.7261	0.017717
401.9436	0.017063
402.1610	0.017020
402.3785	0.019047
402.5960	0.016492
402.8135	0.019575
403.0310	0.016366
403.2486	0.019153
403.4661	0.018921
403.6837	0.019427
403.9013	0.019955
404.1189	0.019406
404.3365	0.019681
404.5541	0.021011
404.7717	0.020040
404.9893	0.020842
405.2070	0.023186
405.4246	0.022109
405.6423	0.024769
405.8600	0.022215
406.0777	0.022975
406.2954	0.024368
406.5131	0.022510
406.7309	0.021856
406.9486	0.022046
407.1664	0.025023
407.3842	0.020884
407.6020	0.023080
407.8198	0.022848
408.0376	0.021138
408.2554	0.022637
408.4733	0.025002
408.6911	0.024748
408.9090	0.022320
409.1269	0.023439
409.3448	0.022003
409.5627	0.026395
409.7806	0.024875
409.9985	0.023397
410.2165	0.024579
410.4344	0.024389
410.6524	0.024157
410.8704	0.025128
411.0884	0.023819
411.3064	0.024664
411.5244	0.023418
411.7424	0.024769
411.9605	0.025804
412.1785	0.024474
412.3966	0.025192
412.6147	0.025825
412.8328	0.026860
413.0509	0.026543
413.2690	0.027134
413.4871	0.028063
413.7053	0.027155
413.9234	0.025846
414.1416	0.025952
414.3598	0.025825
414.5780	0.024495
414.7962	0.025276
415.0144	0.027852
415.2326	0.026374
415.4509	0.027367
415.6692	0.028190
415.8874	0.025487
416.1057	0.025593
416.3240	0.027557
416.5423	0.027979
416.7606	0.027810
416.9790	0.027261
417.1973	0.024601
417.4157	0.028697
417.6341	0.026205
417.8524	0.025656
418.0708	0.028275
418.2893	0.026649
418.5077	0.028275
418.7261	0.028655
418.9446	0.027620
419.1630	0.028528
419.3815	0.029140
419.6000	0.028992
419.8185	0.029246
420.0370	0.030259
420.2555	0.030133
420.4741	0.031906
420.6926	0.029351
420.9112	0.030238
421.1298	0.032117
421.3483	0.032941
421.5669	0.032244
421.7856	0.034398
422.0042	0.034862
422.2228	0.033405
422.4415	0.032075
422.6601	0.032709
422.8788	0.031167
423.0975	0.033427
423.3162	0.034989
423.5349	0.032202
423.7536	0.031590
423.9724	0.031505
424.1911	0.030618
424.4099	0.030893
424.6287	0.027704
424.8475	0.030449
425.0663	0.030576
425.2851	0.030724
425.5039	0.030449
425.7228	0.028465
425.9416	0.028106
426.1605	0.028084
426.3793	0.027747
426.5982	0.027282
426.8171	0.028106
427.0361	0.028655
427.2550	0.029753
427.4739	0.030639
427.6929	0.029457
427.9118	0.029372
428.1308	0.031400
